Lambda ArbUnit
4.64000E+2 3.10212E-3
4.65000E+2 3.77573E-3
4.66000E+2 2.56510E-3
4.67000E+2 3.80660E-3
4.68000E+2 4.72255E-3
4.69000E+2 5.81569E-3
4.70000E+2 6.50157E-3
4.71000E+2 7.71929E-3
4.72000E+2 8.58304E-3
4.73000E+2 9.76419E-3
4.74000E+2 1.01728E-2
4.75000E+2 1.11283E-2
4.76000E+2 1.22148E-2
4.77000E+2 1.34999E-2
4.78000E+2 1.43927E-2
4.79000E+2 1.51456E-2
4.80000E+2 1.56276E-2
4.81000E+2 1.58367E-2
4.82000E+2 1.63043E-2
4.83000E+2 1.68533E-2
4.84000E+2 1.75462E-2
4.85000E+2 1.79290E-2
4.86000E+2 1.83284E-2
4.87000E+2 1.85862E-2
4.88000E+2 1.95332E-2
4.89000E+2 2.01381E-2
4.90000E+2 2.06833E-2
4.91000E+2 2.12160E-2
4.92000E+2 2.19681E-2
4.93000E+2 2.29558E-2
4.94000E+2 2.39642E-2
4.95000E+2 2.49241E-2
4.96000E+2 2.59596E-2
4.97000E+2 2.71031E-2
4.98000E+2 2.81150E-2
4.99000E+2 2.97169E-2
5.00000E+2 3.13889E-2
5.01000E+2 3.15099E-2
5.02000E+2 3.26127E-2
5.03000E+2 3.31966E-2
5.04000E+2 3.33405E-2
5.05000E+2 3.48285E-2
5.06000E+2 3.63318E-2
5.07000E+2 3.74483E-2
5.08000E+2 3.88754E-2
5.09000E+2 3.96372E-2
5.10000E+2 3.93114E-2
5.11000E+2 4.00227E-2
5.12000E+2 4.12167E-2
5.13000E+2 4.22258E-2
5.14000E+2 4.31810E-2
5.15000E+2 4.41932E-2
5.16000E+2 4.51127E-2
5.17000E+2 4.62569E-2
5.18000E+2 4.74653E-2
5.19000E+2 4.84418E-2
5.20000E+2 4.91819E-2
5.21000E+2 5.00065E-2
5.22000E+2 5.11418E-2
5.23000E+2 5.21584E-2
5.24000E+2 5.29288E-2
5.25000E+2 5.37989E-2
5.26000E+2 5.49191E-2
5.27000E+2 5.59158E-2
5.28000E+2 5.67671E-2
5.29000E+2 5.77399E-2
5.30000E+2 5.89043E-2
5.31000E+2 5.99919E-2
5.32000E+2 6.09574E-2
5.33000E+2 6.19809E-2
5.34000E+2 6.31570E-2
5.35000E+2 6.42467E-2
5.36000E+2 6.51779E-2
5.37000E+2 6.61050E-2
5.38000E+2 6.69999E-2
5.39000E+2 6.77761E-2
5.40000E+2 6.83743E-2
5.41000E+2 6.88359E-2
5.42000E+2 6.93792E-2
5.43000E+2 7.00645E-2
5.44000E+2 7.07453E-2
5.45000E+2 7.16381E-2
5.46000E+2 7.26712E-2
5.47000E+2 7.35229E-2
5.48000E+2 7.45419E-2
5.49000E+2 7.57413E-2
5.50000E+2 7.67730E-2
5.51000E+2 7.78840E-2
5.52000E+2 7.91469E-2
5.53000E+2 8.03508E-2
5.54000E+2 8.16229E-2
5.55000E+2 8.30350E-2
5.56000E+2 8.44629E-2
5.57000E+2 8.59339E-2
5.58000E+2 8.74719E-2
5.59000E+2 8.89776E-2
5.60000E+2 9.05386E-2
5.61000E+2 9.22744E-2
5.62000E+2 9.39836E-2
5.63000E+2 9.55692E-2
5.64000E+2 9.71243E-2
5.65000E+2 9.86715E-2
5.66000E+2 1.00105E-1
5.67000E+2 1.01093E-1
5.68000E+2 1.01691E-1
5.69000E+2 1.02360E-1
5.70000E+2 1.03200E-1
5.71000E+2 1.04160E-1
5.72000E+2 1.05216E-1
5.73000E+2 1.06360E-1
5.74000E+2 1.07593E-1
5.75000E+2 1.08808E-1
5.76000E+2 1.09857E-1
5.77000E+2 1.10740E-1
5.78000E+2 1.11529E-1
5.79000E+2 1.12347E-1
5.80000E+2 1.13198E-1
5.81000E+2 1.13934E-1
5.82000E+2 1.14610E-1
5.83000E+2 1.15441E-1
5.84000E+2 1.16400E-1
5.85000E+2 1.17363E-1
5.86000E+2 1.18383E-1
5.87000E+2 1.19536E-1
5.88000E+2 1.20792E-1
5.89000E+2 1.22104E-1
5.90000E+2 1.23437E-1
5.91000E+2 1.24721E-1
5.92000E+2 1.25835E-1
5.93000E+2 1.26839E-1
5.94000E+2 1.28023E-1
5.95000E+2 1.29443E-1
5.96000E+2 1.30885E-1
5.97000E+2 1.32246E-1
5.98000E+2 1.33543E-1
5.99000E+2 1.34820E-1
6.00000E+2 1.36147E-1
6.01000E+2 1.37521E-1
6.02000E+2 1.38874E-1
6.03000E+2 1.40187E-1
6.04000E+2 1.41477E-1
6.05000E+2 1.42764E-1
6.06000E+2 1.44065E-1
6.07000E+2 1.45360E-1
6.08000E+2 1.46582E-1
6.09000E+2 1.47723E-1
6.10000E+2 1.48866E-1
6.11000E+2 1.50084E-1
6.12000E+2 1.51432E-1
6.13000E+2 1.52908E-1
6.14000E+2 1.54394E-1
6.15000E+2 1.55793E-1
6.16000E+2 1.57128E-1
6.17000E+2 1.58444E-1
6.18000E+2 1.59757E-1
6.19000E+2 1.61065E-1
6.20000E+2 1.62297E-1
6.21000E+2 1.63330E-1
6.22000E+2 1.64198E-1
6.23000E+2 1.65119E-1
6.24000E+2 1.66209E-1
6.25000E+2 1.67328E-1
6.26000E+2 1.68343E-1
6.27000E+2 1.69341E-1
6.28000E+2 1.70472E-1
6.29000E+2 1.71678E-1
6.30000E+2 1.72741E-1
6.31000E+2 1.73576E-1
6.32000E+2 1.74320E-1
6.33000E+2 1.75121E-1
6.34000E+2 1.76072E-1
6.35000E+2 1.77239E-1
6.36000E+2 1.78563E-1
6.37000E+2 1.79874E-1
6.38000E+2 1.81076E-1
6.39000E+2 1.82283E-1
6.40000E+2 1.83627E-1
6.41000E+2 1.85099E-1
6.42000E+2 1.86614E-1
6.43000E+2 1.88137E-1
6.44000E+2 1.89736E-1
6.45000E+2 1.91483E-1
6.46000E+2 1.93335E-1
6.47000E+2 1.95194E-1
6.48000E+2 1.97004E-1
6.49000E+2 1.98793E-1
6.50000E+2 2.00595E-1
6.51000E+2 2.02393E-1
6.52000E+2 2.04140E-1
6.53000E+2 2.05832E-1
6.54000E+2 2.07580E-1
6.55000E+2 2.09497E-1
6.56000E+2 2.11560E-1
6.57000E+2 2.13592E-1
6.58000E+2 2.15436E-1
6.59000E+2 2.17180E-1
6.60000E+2 2.19008E-1
6.61000E+2 2.21034E-1
6.62000E+2 2.23159E-1
6.63000E+2 2.25251E-1
6.64000E+2 2.27265E-1
6.65000E+2 2.29257E-1
6.66000E+2 2.31286E-1
6.67000E+2 2.33311E-1
6.68000E+2 2.35222E-1
6.69000E+2 2.36932E-1
6.70000E+2 2.38474E-1
6.71000E+2 2.39930E-1
6.72000E+2 2.41361E-1
6.73000E+2 2.42761E-1
6.74000E+2 2.44113E-1
6.75000E+2 2.45412E-1
6.76000E+2 2.46667E-1
6.77000E+2 2.47907E-1
6.78000E+2 2.49117E-1
6.79000E+2 2.50211E-1
6.80000E+2 2.51113E-1
6.81000E+2 2.51787E-1
6.82000E+2 2.52267E-1
6.83000E+2 2.52596E-1
6.84000E+2 2.52807E-1
6.85000E+2 2.52916E-1
6.86000E+2 2.52953E-1
6.87000E+2 2.52924E-1
6.88000E+2 2.52814E-1
6.89000E+2 2.52614E-1
6.90000E+2 2.52320E-1
6.91000E+2 2.51931E-1
6.92000E+2 2.51448E-1
6.93000E+2 2.50869E-1
6.94000E+2 2.50172E-1
6.95000E+2 2.49331E-1
6.96000E+2 2.48329E-1
6.97000E+2 2.47186E-1
6.98000E+2 2.45927E-1
6.99000E+2 2.44571E-1
7.00000E+2 2.43112E-1
7.01000E+2 2.41525E-1
7.02000E+2 2.39796E-1
7.03000E+2 2.37933E-1
7.04000E+2 2.35960E-1
7.05000E+2 2.33902E-1
7.06000E+2 2.31767E-1
7.07000E+2 2.29522E-1
7.08000E+2 2.27139E-1
7.09000E+2 2.24605E-1
7.10000E+2 2.21955E-1
7.11000E+2 2.19235E-1
7.12000E+2 2.16490E-1
7.13000E+2 2.13753E-1
7.14000E+2 2.11036E-1
7.15000E+2 2.08354E-1
7.16000E+2 2.05720E-1
7.17000E+2 2.03124E-1
7.18000E+2 2.00557E-1
7.19000E+2 1.98009E-1
7.20000E+2 1.95458E-1
7.21000E+2 1.92879E-1
7.22000E+2 1.90245E-1
7.23000E+2 1.87558E-1
7.24000E+2 1.84863E-1
7.25000E+2 1.82202E-1
7.26000E+2 1.79613E-1
7.27000E+2 1.77078E-1
7.28000E+2 1.74550E-1
7.29000E+2 1.71982E-1
7.30000E+2 1.69354E-1
7.31000E+2 1.66709E-1
7.32000E+2 1.64098E-1
7.33000E+2 1.61567E-1
7.34000E+2 1.59149E-1
7.35000E+2 1.56859E-1
7.36000E+2 1.54710E-1
7.37000E+2 1.52711E-1
7.38000E+2 1.50851E-1
7.39000E+2 1.49109E-1
7.40000E+2 1.47461E-1
7.41000E+2 1.45899E-1
7.42000E+2 1.44459E-1
7.43000E+2 1.43185E-1
7.44000E+2 1.42122E-1
7.45000E+2 1.41292E-1
7.46000E+2 1.40661E-1
7.47000E+2 1.40193E-1
7.48000E+2 1.39848E-1
7.49000E+2 1.39605E-1
7.50000E+2 1.39469E-1
7.51000E+2 1.39445E-1
7.52000E+2 1.39537E-1
7.53000E+2 1.39738E-1
7.54000E+2 1.40027E-1
7.55000E+2 1.40380E-1
7.56000E+2 1.40776E-1
7.57000E+2 1.41203E-1
7.58000E+2 1.41656E-1
7.59000E+2 1.42138E-1
7.60000E+2 1.42647E-1
7.61000E+2 1.43173E-1
7.62000E+2 1.43695E-1
7.63000E+2 1.44194E-1
7.64000E+2 1.44646E-1
7.65000E+2 1.45036E-1
7.66000E+2 1.45354E-1
7.67000E+2 1.45592E-1
7.68000E+2 1.45744E-1
7.69000E+2 1.45802E-1
7.70000E+2 1.45775E-1
7.71000E+2 1.45674E-1
7.72000E+2 1.45507E-1
7.73000E+2 1.45282E-1
7.74000E+2 1.45004E-1
7.75000E+2 1.44673E-1
7.76000E+2 1.44289E-1
7.77000E+2 1.43851E-1
7.78000E+2 1.43359E-1
7.79000E+2 1.42809E-1
7.80000E+2 1.42193E-1
7.81000E+2 1.41506E-1
7.82000E+2 1.40746E-1
7.83000E+2 1.39917E-1
7.84000E+2 1.39026E-1
7.85000E+2 1.38074E-1
7.86000E+2 1.37067E-1
7.87000E+2 1.36002E-1
7.88000E+2 1.34876E-1
7.89000E+2 1.33684E-1
7.90000E+2 1.32421E-1
7.91000E+2 1.31090E-1
7.92000E+2 1.29705E-1
7.93000E+2 1.28281E-1
7.94000E+2 1.26831E-1
7.95000E+2 1.25373E-1
7.96000E+2 1.23904E-1
7.97000E+2 1.22417E-1
7.98000E+2 1.20899E-1
7.99000E+2 1.19345E-1
8.00000E+2 1.17747E-1
8.01000E+2 1.16109E-1
8.02000E+2 1.14440E-1
8.03000E+2 1.12749E-1
8.04000E+2 1.11044E-1
8.05000E+2 1.09328E-1
8.06000E+2 1.07607E-1
8.07000E+2 1.05885E-1
8.08000E+2 1.04166E-1
8.09000E+2 1.02452E-1
8.10000E+2 1.00751E-1
8.11000E+2 9.90728E-2
8.12000E+2 9.74279E-2
8.13000E+2 9.58251E-2
8.14000E+2 9.42727E-2
8.15000E+2 9.27776E-2
8.16000E+2 9.13449E-2
8.17000E+2 8.99778E-2
8.18000E+2 8.86816E-2
8.19000E+2 8.74582E-2
8.20000E+2 8.63068E-2
8.21000E+2 8.52195E-2
8.22000E+2 8.41919E-2
8.23000E+2 8.32175E-2
8.24000E+2 8.22924E-2
8.25000E+2 8.14291E-2
8.26000E+2 8.06502E-2
8.27000E+2 7.99752E-2
8.28000E+2 7.94257E-2
8.29000E+2 7.90217E-2
8.30000E+2 7.87747E-2
8.31000E+2 7.86917E-2
8.32000E+2 7.87788E-2
8.33000E+2 7.90409E-2
8.34000E+2 7.94847E-2
8.35000E+2 8.01124E-2
8.36000E+2 8.09198E-2
8.37000E+2 8.19038E-2
8.38000E+2 8.30628E-2
8.39000E+2 8.43925E-2
8.40000E+2 8.58996E-2
8.41000E+2 8.76070E-2
8.42000E+2 8.95412E-2
8.43000E+2 9.17277E-2
8.44000E+2 9.41928E-2
8.45000E+2 9.69538E-2
8.46000E+2 9.99845E-2
8.47000E+2 1.03242E-1
8.48000E+2 1.06681E-1
8.49000E+2 1.10259E-1
8.50000E+2 1.13934E-1
8.51000E+2 1.17689E-1
8.52000E+2 1.21534E-1
8.53000E+2 1.25485E-1
8.54000E+2 1.29553E-1
8.55000E+2 1.33752E-1
8.56000E+2 1.38084E-1
8.57000E+2 1.42504E-1
8.58000E+2 1.46955E-1
8.59000E+2 1.51377E-1
8.60000E+2 1.55710E-1
8.61000E+2 1.59897E-1
8.62000E+2 1.63908E-1
8.63000E+2 1.67761E-1
8.64000E+2 1.71475E-1
8.65000E+2 1.75070E-1
8.66000E+2 1.78566E-1
8.67000E+2 1.81985E-1
8.68000E+2 1.85353E-1
8.69000E+2 1.88697E-1
8.70000E+2 1.92051E-1
8.71000E+2 1.95443E-1
8.72000E+2 1.98902E-1
8.73000E+2 2.02451E-1
8.74000E+2 2.06044E-1
8.75000E+2 2.09614E-1
8.76000E+2 2.13097E-1
8.77000E+2 2.16426E-1
8.78000E+2 2.19532E-1
8.79000E+2 2.22368E-1
8.80000E+2 2.24970E-1
8.81000E+2 2.27393E-1
8.82000E+2 2.29691E-1
8.83000E+2 2.31917E-1
8.84000E+2 2.34127E-1
8.85000E+2 2.36359E-1
8.86000E+2 2.38591E-1
8.87000E+2 2.40785E-1
8.88000E+2 2.42900E-1
8.89000E+2 2.44901E-1
8.90000E+2 2.46751E-1
8.91000E+2 2.48419E-1
8.92000E+2 2.49908E-1
8.93000E+2 2.51231E-1
8.94000E+2 2.52400E-1
8.95000E+2 2.53428E-1
8.96000E+2 2.54329E-1
8.97000E+2 2.55114E-1
8.98000E+2 2.55786E-1
8.99000E+2 2.56342E-1
9.00000E+2 2.56778E-1
9.01000E+2 2.57092E-1
9.02000E+2 2.57283E-1
9.03000E+2 2.57347E-1
9.04000E+2 2.57287E-1
9.05000E+2 2.57106E-1
9.06000E+2 2.56805E-1
9.07000E+2 2.56392E-1
9.08000E+2 2.55870E-1
9.09000E+2 2.55242E-1
9.10000E+2 2.54511E-1
9.11000E+2 2.53672E-1
9.12000E+2 2.52723E-1
9.13000E+2 2.51659E-1
9.14000E+2 2.50476E-1
9.15000E+2 2.49168E-1
9.16000E+2 2.47733E-1
9.17000E+2 2.46177E-1
9.18000E+2 2.44510E-1
9.19000E+2 2.42741E-1
9.20000E+2 2.40881E-1
9.21000E+2 2.38939E-1
9.22000E+2 2.36927E-1
9.23000E+2 2.34851E-1
9.24000E+2 2.32700E-1
9.25000E+2 2.30468E-1
9.26000E+2 2.28143E-1
9.27000E+2 2.25714E-1
9.28000E+2 2.23173E-1
9.29000E+2 2.20508E-1
9.30000E+2 2.17729E-1
9.31000E+2 2.14871E-1
9.32000E+2 2.11976E-1
9.33000E+2 2.09079E-1
9.34000E+2 2.06217E-1
9.35000E+2 2.03427E-1
9.36000E+2 2.00743E-1
9.37000E+2 1.98171E-1
9.38000E+2 1.95684E-1
9.39000E+2 1.93253E-1
9.40000E+2 1.90856E-1
9.41000E+2 1.88469E-1
9.42000E+2 1.86067E-1
9.43000E+2 1.83626E-1
9.44000E+2 1.81156E-1
9.45000E+2 1.78681E-1
9.46000E+2 1.76227E-1
9.47000E+2 1.73821E-1
9.48000E+2 1.71488E-1
9.49000E+2 1.69252E-1
9.50000E+2 1.67140E-1
9.51000E+2 1.65158E-1
9.52000E+2 1.63306E-1
9.53000E+2 1.61583E-1
9.54000E+2 1.59988E-1
9.55000E+2 1.58521E-1
9.56000E+2 1.57179E-1
9.57000E+2 1.55963E-1
9.58000E+2 1.54881E-1
9.59000E+2 1.53960E-1
9.60000E+2 1.53217E-1
9.61000E+2 1.52673E-1
9.62000E+2 1.52352E-1
9.63000E+2 1.52276E-1
9.64000E+2 1.52464E-1
9.65000E+2 1.52930E-1
9.66000E+2 1.53677E-1
9.67000E+2 1.54705E-1
9.68000E+2 1.56016E-1
9.69000E+2 1.57608E-1
9.70000E+2 1.59483E-1
9.71000E+2 1.61640E-1
9.72000E+2 1.64079E-1
9.73000E+2 1.66785E-1
9.74000E+2 1.69736E-1
9.75000E+2 1.72914E-1
9.76000E+2 1.76301E-1
9.77000E+2 1.79878E-1
9.78000E+2 1.83625E-1
9.79000E+2 1.87522E-1
9.80000E+2 1.91568E-1
9.81000E+2 1.95772E-1
9.82000E+2 2.00146E-1
9.83000E+2 2.04705E-1
9.84000E+2 2.09458E-1
9.85000E+2 2.14420E-1
9.86000E+2 2.19603E-1
9.87000E+2 2.25018E-1
9.88000E+2 2.30675E-1
9.89000E+2 2.36583E-1
9.90000E+2 2.42749E-1
9.91000E+2 2.49182E-1
9.92000E+2 2.55892E-1
9.93000E+2 2.62886E-1
9.94000E+2 2.70171E-1
9.95000E+2 2.77747E-1
9.96000E+2 2.85570E-1
9.97000E+2 2.93592E-1
9.98000E+2 3.01768E-1
9.99000E+2 3.10050E-1
1.00000E+3 3.18393E-1
1.00100E+3 3.26748E-1
1.00200E+3 3.35065E-1
1.00300E+3 3.43326E-1
1.00400E+3 3.51568E-1
1.00500E+3 3.59816E-1
1.00600E+3 3.68117E-1
1.00700E+3 3.76499E-1
1.00800E+3 3.85006E-1
1.00900E+3 3.93673E-1
1.01000E+3 4.02536E-1
1.01100E+3 4.11608E-1
1.01200E+3 4.20848E-1
1.01300E+3 4.30218E-1
1.01400E+3 4.39678E-1
1.01500E+3 4.49179E-1
1.01600E+3 4.58683E-1
1.01700E+3 4.68146E-1
1.01800E+3 4.77527E-1
1.01900E+3 4.86801E-1
1.02000E+3 4.95966E-1
1.02100E+3 5.05042E-1
1.02200E+3 5.14031E-1
1.02300E+3 5.22953E-1
1.02400E+3 5.31819E-1
1.02500E+3 5.40637E-1
1.02600E+3 5.49424E-1
1.02700E+3 5.58181E-1
1.02800E+3 5.66886E-1
1.02900E+3 5.75495E-1
1.03000E+3 5.83960E-1
1.03100E+3 5.92247E-1
1.03200E+3 6.00314E-1
1.03300E+3 6.08131E-1
1.03400E+3 6.15645E-1
1.03500E+3 6.22814E-1
1.03600E+3 6.29663E-1
1.03700E+3 6.36259E-1
1.03800E+3 6.42670E-1
1.03900E+3 6.48963E-1
1.04000E+3 6.55213E-1
1.04100E+3 6.61483E-1
1.04200E+3 6.67845E-1
1.04300E+3 6.74362E-1
1.04400E+3 6.81098E-1
1.04500E+3 6.88006E-1
1.04600E+3 6.95027E-1
1.04700E+3 7.02113E-1
1.04800E+3 7.09213E-1
1.04900E+3 7.16261E-1
1.05000E+3 7.23210E-1
1.05100E+3 7.29998E-1
1.05200E+3 7.36570E-1
1.05300E+3 7.42898E-1
1.05400E+3 7.48996E-1
1.05500E+3 7.54892E-1
1.05600E+3 7.60593E-1
1.05700E+3 7.66108E-1
1.05800E+3 7.71465E-1
1.05900E+3 7.76679E-1
1.06000E+3 7.81762E-1
1.06100E+3 7.86735E-1
1.06200E+3 7.91596E-1
1.06300E+3 7.96305E-1
1.06400E+3 8.00836E-1
1.06500E+3 8.05171E-1
1.06600E+3 8.09273E-1
1.06700E+3 8.13128E-1
1.06800E+3 8.16702E-1
1.06900E+3 8.19961E-1
1.07000E+3 8.22893E-1
1.07100E+3 8.25500E-1
1.07200E+3 8.27798E-1
1.07300E+3 8.29811E-1
1.07400E+3 8.31571E-1
1.07500E+3 8.33094E-1
1.07600E+3 8.34411E-1
1.07700E+3 8.35543E-1
1.07800E+3 8.36507E-1
1.07900E+3 8.37326E-1
1.08000E+3 8.38026E-1
1.08100E+3 8.38592E-1
1.08200E+3 8.39028E-1
1.08300E+3 8.39340E-1
1.08400E+3 8.39525E-1
1.08500E+3 8.39576E-1
1.08600E+3 8.39494E-1
1.08700E+3 8.39285E-1
1.08800E+3 8.38952E-1
1.08900E+3 8.38482E-1
1.09000E+3 8.37882E-1
1.09100E+3 8.37148E-1
1.09200E+3 8.36290E-1
1.09300E+3 8.35296E-1
1.09400E+3 8.34164E-1
1.09500E+3 8.32898E-1
1.09600E+3 8.31502E-1
1.09700E+3 8.29969E-1
1.09800E+3 8.28302E-1
1.09900E+3 8.26508E-1
1.10000E+3 8.24581E-1
1.10100E+3 8.22537E-1
1.10200E+3 8.20386E-1
1.10300E+3 8.18122E-1
1.10400E+3 8.15752E-1
1.10500E+3 8.13290E-1
1.10600E+3 8.10731E-1
1.10700E+3 8.08090E-1
1.10800E+3 8.05353E-1
1.10900E+3 8.02513E-1
1.11000E+3 7.99556E-1
1.11100E+3 7.96473E-1
1.11200E+3 7.93242E-1
1.11300E+3 7.89853E-1
1.11400E+3 7.86289E-1
1.11500E+3 7.82541E-1
