Lambda ArbUnit
4.64000E+2 3.08381E-5
4.65000E+2 3.28880E-5
4.66000E+2 3.45111E-5
4.67000E+2 3.61176E-5
4.68000E+2 3.76551E-5
4.69000E+2 3.96440E-5
4.70000E+2 4.18002E-5
4.71000E+2 4.38637E-5
4.72000E+2 4.54704E-5
4.73000E+2 4.72896E-5
4.74000E+2 4.93678E-5
4.75000E+2 5.11913E-5
4.76000E+2 5.27570E-5
4.77000E+2 5.47220E-5
4.78000E+2 5.65913E-5
4.79000E+2 5.82498E-5
4.80000E+2 6.01171E-5
4.81000E+2 6.19624E-5
4.82000E+2 6.40172E-5
4.83000E+2 6.61608E-5
4.84000E+2 6.82356E-5
4.85000E+2 7.08069E-5
4.86000E+2 7.33588E-5
4.87000E+2 7.61383E-5
4.88000E+2 7.92137E-5
4.89000E+2 8.26639E-5
4.90000E+2 8.55832E-5
4.91000E+2 8.89655E-5
4.92000E+2 9.30000E-5
4.93000E+2 9.65479E-5
4.94000E+2 1.00187E-4
4.95000E+2 1.03798E-4
4.96000E+2 1.06753E-4
4.97000E+2 1.09797E-4
4.98000E+2 1.13362E-4
4.99000E+2 1.16942E-4
5.00000E+2 1.20908E-4
5.01000E+2 1.25365E-4
5.02000E+2 1.30010E-4
5.03000E+2 1.34238E-4
5.04000E+2 1.37770E-4
5.05000E+2 1.41362E-4
5.06000E+2 1.45435E-4
5.07000E+2 1.49563E-4
5.08000E+2 1.53982E-4
5.09000E+2 1.58570E-4
5.10000E+2 1.62744E-4
5.11000E+2 1.66663E-4
5.12000E+2 1.70570E-4
5.13000E+2 1.74364E-4
5.14000E+2 1.78663E-4
5.15000E+2 1.83152E-4
5.16000E+2 1.87782E-4
5.17000E+2 1.92588E-4
5.18000E+2 1.97387E-4
5.19000E+2 2.02389E-4
5.20000E+2 2.07407E-4
5.21000E+2 2.12422E-4
5.22000E+2 2.17590E-4
5.23000E+2 2.22842E-4
5.24000E+2 2.28420E-4
5.25000E+2 2.34427E-4
5.26000E+2 2.40249E-4
5.27000E+2 2.44766E-4
5.28000E+2 2.49633E-4
5.29000E+2 2.55205E-4
5.30000E+2 2.60261E-4
5.31000E+2 2.65031E-4
5.32000E+2 2.69430E-4
5.33000E+2 2.73733E-4
5.34000E+2 2.78786E-4
5.35000E+2 2.83785E-4
5.36000E+2 2.88465E-4
5.37000E+2 2.93284E-4
5.38000E+2 2.97900E-4
5.39000E+2 3.02787E-4
5.40000E+2 3.08536E-4
5.41000E+2 3.14393E-4
5.42000E+2 3.20195E-4
5.43000E+2 3.26181E-4
5.44000E+2 3.32412E-4
5.45000E+2 3.39002E-4
5.46000E+2 3.45917E-4
5.47000E+2 3.52749E-4
5.48000E+2 3.59889E-4
5.49000E+2 3.67769E-4
5.50000E+2 3.75372E-4
5.51000E+2 3.82931E-4
5.52000E+2 3.91528E-4
5.53000E+2 4.00237E-4
5.54000E+2 4.08454E-4
5.55000E+2 4.16675E-4
5.56000E+2 4.24985E-4
5.57000E+2 4.33285E-4
5.58000E+2 4.41524E-4
5.59000E+2 4.48942E-4
5.60000E+2 4.54521E-4
5.61000E+2 4.59293E-4
5.62000E+2 4.64460E-4
5.63000E+2 4.70124E-4
5.64000E+2 4.76050E-4
5.65000E+2 4.81943E-4
5.66000E+2 4.88215E-4
5.67000E+2 4.95181E-4
5.68000E+2 5.02252E-4
5.69000E+2 5.09360E-4
5.70000E+2 5.17139E-4
5.71000E+2 5.25163E-4
5.72000E+2 5.32536E-4
5.73000E+2 5.39410E-4
5.74000E+2 5.46097E-4
5.75000E+2 5.52454E-4
5.76000E+2 5.58752E-4
5.77000E+2 5.65927E-4
5.78000E+2 5.74014E-4
5.79000E+2 5.82264E-4
5.80000E+2 5.90870E-4
5.81000E+2 6.00366E-4
5.82000E+2 6.09893E-4
5.83000E+2 6.18464E-4
5.84000E+2 6.26821E-4
5.85000E+2 6.35843E-4
5.86000E+2 6.45457E-4
5.87000E+2 6.55354E-4
5.88000E+2 6.65086E-4
5.89000E+2 6.74459E-4
5.90000E+2 6.83781E-4
5.91000E+2 6.93313E-4
5.92000E+2 7.03140E-4
5.93000E+2 7.13074E-4
5.94000E+2 7.22554E-4
5.95000E+2 7.31518E-4
5.96000E+2 7.40676E-4
5.97000E+2 7.50262E-4
5.98000E+2 7.59701E-4
5.99000E+2 7.68695E-4
6.00000E+2 7.77524E-4
6.01000E+2 7.86479E-4
6.02000E+2 7.95780E-4
6.03000E+2 8.05470E-4
6.04000E+2 8.15187E-4
6.05000E+2 8.24666E-4
6.06000E+2 8.34125E-4
6.07000E+2 8.43813E-4
6.08000E+2 8.53665E-4
6.09000E+2 8.63534E-4
6.10000E+2 8.73291E-4
6.11000E+2 8.82804E-4
6.12000E+2 8.91723E-4
6.13000E+2 8.99578E-4
6.14000E+2 9.06768E-4
6.15000E+2 9.14711E-4
6.16000E+2 9.24034E-4
6.17000E+2 9.33555E-4
6.18000E+2 9.42164E-4
6.19000E+2 9.50051E-4
6.20000E+2 9.57715E-4
6.21000E+2 9.65164E-4
6.22000E+2 9.72133E-4
6.23000E+2 9.78786E-4
6.24000E+2 9.85857E-4
6.25000E+2 9.93799E-4
6.26000E+2 1.00204E-3
6.27000E+2 1.00992E-3
6.28000E+2 1.01768E-3
6.29000E+2 1.02612E-3
6.30000E+2 1.03533E-3
6.31000E+2 1.04437E-3
6.32000E+2 1.05251E-3
6.33000E+2 1.06053E-3
6.34000E+2 1.06963E-3
6.35000E+2 1.07997E-3
6.36000E+2 1.09062E-3
6.37000E+2 1.10088E-3
6.38000E+2 1.11113E-3
6.39000E+2 1.12200E-3
6.40000E+2 1.13370E-3
6.41000E+2 1.14610E-3
6.42000E+2 1.15901E-3
6.43000E+2 1.17211E-3
6.44000E+2 1.18504E-3
6.45000E+2 1.19772E-3
6.46000E+2 1.21036E-3
6.47000E+2 1.22318E-3
6.48000E+2 1.23608E-3
6.49000E+2 1.24885E-3
6.50000E+2 1.26148E-3
6.51000E+2 1.27436E-3
6.52000E+2 1.28793E-3
6.53000E+2 1.30240E-3
6.54000E+2 1.31776E-3
6.55000E+2 1.33394E-3
6.56000E+2 1.35054E-3
6.57000E+2 1.36700E-3
6.58000E+2 1.38305E-3
6.59000E+2 1.39923E-3
6.60000E+2 1.41623E-3
6.61000E+2 1.43396E-3
6.62000E+2 1.45130E-3
6.63000E+2 1.46708E-3
6.64000E+2 1.48127E-3
6.65000E+2 1.49476E-3
6.66000E+2 1.50846E-3
6.67000E+2 1.52274E-3
6.68000E+2 1.53775E-3
6.69000E+2 1.55353E-3
6.70000E+2 1.56959E-3
6.71000E+2 1.58526E-3
6.72000E+2 1.60007E-3
6.73000E+2 1.61462E-3
6.74000E+2 1.62985E-3
6.75000E+2 1.64637E-3
6.76000E+2 1.66344E-3
6.77000E+2 1.67999E-3
6.78000E+2 1.69526E-3
6.79000E+2 1.70977E-3
6.80000E+2 1.72440E-3
6.81000E+2 1.73986E-3
6.82000E+2 1.75615E-3
6.83000E+2 1.77304E-3
6.84000E+2 1.79035E-3
6.85000E+2 1.80794E-3
6.86000E+2 1.82571E-3
6.87000E+2 1.84355E-3
6.88000E+2 1.86104E-3
6.89000E+2 1.87766E-3
6.90000E+2 1.89290E-3
6.91000E+2 1.90698E-3
6.92000E+2 1.92062E-3
6.93000E+2 1.93453E-3
6.94000E+2 1.94900E-3
6.95000E+2 1.96381E-3
6.96000E+2 1.97866E-3
6.97000E+2 1.99340E-3
6.98000E+2 2.00815E-3
6.99000E+2 2.02304E-3
7.00000E+2 2.03820E-3
7.01000E+2 2.05338E-3
7.02000E+2 2.06823E-3
7.03000E+2 2.08242E-3
7.04000E+2 2.09592E-3
7.05000E+2 2.10898E-3
7.06000E+2 2.12184E-3
7.07000E+2 2.13468E-3
7.08000E+2 2.14746E-3
7.09000E+2 2.16010E-3
7.10000E+2 2.17251E-3
7.11000E+2 2.18461E-3
7.12000E+2 2.19628E-3
7.13000E+2 2.20744E-3
7.14000E+2 2.21801E-3
7.15000E+2 2.22803E-3
7.16000E+2 2.23755E-3
7.17000E+2 2.24660E-3
7.18000E+2 2.25518E-3
7.19000E+2 2.26324E-3
7.20000E+2 2.27073E-3
7.21000E+2 2.27764E-3
7.22000E+2 2.28404E-3
7.23000E+2 2.29005E-3
7.24000E+2 2.29575E-3
7.25000E+2 2.30103E-3
7.26000E+2 2.30556E-3
7.27000E+2 2.30897E-3
7.28000E+2 2.31098E-3
7.29000E+2 2.31164E-3
7.30000E+2 2.31122E-3
7.31000E+2 2.30997E-3
7.32000E+2 2.30810E-3
7.33000E+2 2.30568E-3
7.34000E+2 2.30270E-3
7.35000E+2 2.29919E-3
7.36000E+2 2.29505E-3
7.37000E+2 2.28995E-3
7.38000E+2 2.28352E-3
7.39000E+2 2.27541E-3
7.40000E+2 2.26556E-3
7.41000E+2 2.25434E-3
7.42000E+2 2.24214E-3
7.43000E+2 2.22935E-3
7.44000E+2 2.21597E-3
7.45000E+2 2.20155E-3
7.46000E+2 2.18563E-3
7.47000E+2 2.16772E-3
7.48000E+2 2.14763E-3
7.49000E+2 2.12541E-3
7.50000E+2 2.10115E-3
7.51000E+2 2.07493E-3
7.52000E+2 2.04716E-3
7.53000E+2 2.01861E-3
7.54000E+2 1.99010E-3
7.55000E+2 1.96242E-3
7.56000E+2 1.93607E-3
7.57000E+2 1.91108E-3
7.58000E+2 1.88741E-3
7.59000E+2 1.86503E-3
7.60000E+2 1.84369E-3
7.61000E+2 1.82249E-3
7.62000E+2 1.80046E-3
7.63000E+2 1.77663E-3
7.64000E+2 1.75031E-3
7.65000E+2 1.72217E-3
7.66000E+2 1.69332E-3
7.67000E+2 1.66486E-3
7.68000E+2 1.63780E-3
7.69000E+2 1.61213E-3
7.70000E+2 1.58715E-3
7.71000E+2 1.56211E-3
7.72000E+2 1.53630E-3
7.73000E+2 1.50936E-3
7.74000E+2 1.48162E-3
7.75000E+2 1.45345E-3
7.76000E+2 1.42524E-3
7.77000E+2 1.39733E-3
7.78000E+2 1.36978E-3
7.79000E+2 1.34256E-3
7.80000E+2 1.31562E-3
7.81000E+2 1.28890E-3
7.82000E+2 1.26227E-3
7.83000E+2 1.23540E-3
7.84000E+2 1.20798E-3
7.85000E+2 1.17969E-3
7.86000E+2 1.15023E-3
7.87000E+2 1.11963E-3
7.88000E+2 1.08804E-3
7.89000E+2 1.05561E-3
7.90000E+2 1.02249E-3
7.91000E+2 9.88973E-4
7.92000E+2 9.55669E-4
7.93000E+2 9.23254E-4
7.94000E+2 8.92400E-4
7.95000E+2 8.63766E-4
7.96000E+2 8.37575E-4
7.97000E+2 8.13553E-4
7.98000E+2 7.91393E-4
7.99000E+2 7.70791E-4
8.00000E+2 7.51487E-4
8.01000E+2 7.33787E-4
8.02000E+2 7.18369E-4
8.03000E+2 7.05919E-4
8.04000E+2 6.97121E-4
8.05000E+2 6.92586E-4
8.06000E+2 6.92334E-4
8.07000E+2 6.96120E-4
8.08000E+2 7.03696E-4
8.09000E+2 7.14812E-4
8.10000E+2 7.29198E-4
8.11000E+2 7.46437E-4
8.12000E+2 7.66055E-4
8.13000E+2 7.87578E-4
8.14000E+2 8.10533E-4
8.15000E+2 8.34457E-4
8.16000E+2 8.58975E-4
8.17000E+2 8.83746E-4
8.18000E+2 9.08428E-4
8.19000E+2 9.32682E-4
8.20000E+2 9.56179E-4
8.21000E+2 9.78716E-4
8.22000E+2 1.00016E-3
8.23000E+2 1.02038E-3
8.24000E+2 1.03925E-3
8.25000E+2 1.05662E-3
8.26000E+2 1.07238E-3
8.27000E+2 1.08641E-3
8.28000E+2 1.09859E-3
8.29000E+2 1.10881E-3
8.30000E+2 1.11695E-3
8.31000E+2 1.12299E-3
8.32000E+2 1.12713E-3
8.33000E+2 1.12956E-3
8.34000E+2 1.13048E-3
8.35000E+2 1.13009E-3
8.36000E+2 1.12856E-3
8.37000E+2 1.12575E-3
8.38000E+2 1.12146E-3
8.39000E+2 1.11547E-3
8.40000E+2 1.10759E-3
8.41000E+2 1.09760E-3
8.42000E+2 1.08551E-3
8.43000E+2 1.07152E-3
8.44000E+2 1.05587E-3
8.45000E+2 1.03877E-3
8.46000E+2 1.02046E-3
8.47000E+2 1.00116E-3
8.48000E+2 9.81147E-4
8.49000E+2 9.60695E-4
8.50000E+2 9.40084E-4
8.51000E+2 9.19594E-4
8.52000E+2 8.99502E-4
8.53000E+2 8.80002E-4
8.54000E+2 8.61145E-4
8.55000E+2 8.42966E-4
8.56000E+2 8.25503E-4
8.57000E+2 8.08793E-4
8.58000E+2 7.92868E-4
8.59000E+2 7.77680E-4
8.60000E+2 7.63118E-4
8.61000E+2 7.49071E-4
8.62000E+2 7.35424E-4
8.63000E+2 7.22067E-4
8.64000E+2 7.08901E-4
8.65000E+2 6.95962E-4
8.66000E+2 6.83344E-4
8.67000E+2 6.71146E-4
8.68000E+2 6.59465E-4
8.69000E+2 6.48398E-4
8.70000E+2 6.38050E-4
8.71000E+2 6.28581E-4
8.72000E+2 6.20172E-4
8.73000E+2 6.13002E-4
8.74000E+2 6.07252E-4
8.75000E+2 6.03101E-4
8.76000E+2 6.00726E-4
8.77000E+2 6.00288E-4
8.78000E+2 6.01942E-4
8.79000E+2 6.05841E-4
8.80000E+2 6.12140E-4
8.81000E+2 6.20993E-4
8.82000E+2 6.32534E-4
8.83000E+2 6.46721E-4
8.84000E+2 6.63420E-4
8.85000E+2 6.82497E-4
8.86000E+2 7.03818E-4
8.87000E+2 7.27248E-4
8.88000E+2 7.52658E-4
8.89000E+2 7.80009E-4
8.90000E+2 8.09344E-4
8.91000E+2 8.40710E-4
8.92000E+2 8.74156E-4
8.93000E+2 9.09727E-4
8.94000E+2 9.47471E-4
8.95000E+2 9.87424E-4
8.96000E+2 1.02960E-3
8.97000E+2 1.07401E-3
8.98000E+2 1.12068E-3
8.99000E+2 1.16960E-3
9.00000E+2 1.22079E-3
9.01000E+2 1.27421E-3
9.02000E+2 1.32944E-3
9.03000E+2 1.38584E-3
9.04000E+2 1.44283E-3
9.05000E+2 1.49977E-3
9.06000E+2 1.55607E-3
9.07000E+2 1.61112E-3
9.08000E+2 1.66454E-3
9.09000E+2 1.71641E-3
9.10000E+2 1.76685E-3
9.11000E+2 1.81596E-3
9.12000E+2 1.86388E-3
9.13000E+2 1.91070E-3
9.14000E+2 1.95655E-3
9.15000E+2 2.00142E-3
9.16000E+2 2.04522E-3
9.17000E+2 2.08789E-3
9.18000E+2 2.12933E-3
9.19000E+2 2.16946E-3
9.20000E+2 2.20821E-3
9.21000E+2 2.24551E-3
9.22000E+2 2.28139E-3
9.23000E+2 2.31592E-3
9.24000E+2 2.34917E-3
9.25000E+2 2.38122E-3
9.26000E+2 2.41212E-3
9.27000E+2 2.44195E-3
9.28000E+2 2.47076E-3
9.29000E+2 2.49851E-3
9.30000E+2 2.52516E-3
9.31000E+2 2.55065E-3
9.32000E+2 2.57494E-3
9.33000E+2 2.59797E-3
9.34000E+2 2.61970E-3
9.35000E+2 2.64006E-3
9.36000E+2 2.65898E-3
9.37000E+2 2.67636E-3
9.38000E+2 2.69210E-3
9.39000E+2 2.70613E-3
9.40000E+2 2.71835E-3
9.41000E+2 2.72867E-3
9.42000E+2 2.73703E-3
9.43000E+2 2.74353E-3
9.44000E+2 2.74833E-3
9.45000E+2 2.75157E-3
9.46000E+2 2.75341E-3
9.47000E+2 2.75399E-3
9.48000E+2 2.75347E-3
9.49000E+2 2.75198E-3
9.50000E+2 2.74964E-3
9.51000E+2 2.74655E-3
9.52000E+2 2.74278E-3
9.53000E+2 2.73842E-3
9.54000E+2 2.73357E-3
9.55000E+2 2.72832E-3
9.56000E+2 2.72276E-3
9.57000E+2 2.71696E-3
9.58000E+2 2.71102E-3
9.59000E+2 2.70500E-3
9.60000E+2 2.69900E-3
9.61000E+2 2.69308E-3
9.62000E+2 2.68733E-3
9.63000E+2 2.68182E-3
9.64000E+2 2.67663E-3
9.65000E+2 2.67172E-3
9.66000E+2 2.66707E-3
9.67000E+2 2.66262E-3
9.68000E+2 2.65834E-3
9.69000E+2 2.65419E-3
9.70000E+2 2.65012E-3
9.71000E+2 2.64609E-3
9.72000E+2 2.64210E-3
9.73000E+2 2.63815E-3
9.74000E+2 2.63427E-3
9.75000E+2 2.63048E-3
9.76000E+2 2.62682E-3
9.77000E+2 2.62329E-3
9.78000E+2 2.61993E-3
9.79000E+2 2.61675E-3
9.80000E+2 2.61378E-3
9.81000E+2 2.61105E-3
9.82000E+2 2.60858E-3
9.83000E+2 2.60639E-3
9.84000E+2 2.60451E-3
9.85000E+2 2.60296E-3
9.86000E+2 2.60176E-3
9.87000E+2 2.60094E-3
9.88000E+2 2.60055E-3
9.89000E+2 2.60062E-3
9.90000E+2 2.60122E-3
9.91000E+2 2.60238E-3
9.92000E+2 2.60417E-3
9.93000E+2 2.60662E-3
9.94000E+2 2.60978E-3
9.95000E+2 2.61372E-3
9.96000E+2 2.61851E-3
9.97000E+2 2.62427E-3
9.98000E+2 2.63110E-3
9.99000E+2 2.63910E-3
1.00000E+3 2.64838E-3
1.00100E+3 2.65904E-3
1.00200E+3 2.67118E-3
1.00300E+3 2.68491E-3
1.00400E+3 2.70019E-3
1.00500E+3 2.71692E-3
1.00600E+3 2.73501E-3
1.00700E+3 2.75436E-3
1.00800E+3 2.77486E-3
1.00900E+3 2.79643E-3
1.01000E+3 2.81895E-3
1.01100E+3 2.84235E-3
1.01200E+3 2.86661E-3
1.01300E+3 2.89183E-3
1.01400E+3 2.91813E-3
1.01500E+3 2.94559E-3
1.01600E+3 2.97433E-3
1.01700E+3 3.00444E-3
1.01800E+3 3.03604E-3
1.01900E+3 3.06922E-3
1.02000E+3 3.10400E-3
1.02100E+3 3.14007E-3
1.02200E+3 3.17711E-3
1.02300E+3 3.21475E-3
1.02400E+3 3.25267E-3
1.02500E+3 3.29050E-3
1.02600E+3 3.32792E-3
1.02700E+3 3.36456E-3
1.02800E+3 3.40012E-3
1.02900E+3 3.43473E-3
1.03000E+3 3.46889E-3
1.03100E+3 3.50312E-3
1.03200E+3 3.53795E-3
1.03300E+3 3.57388E-3
1.03400E+3 3.61145E-3
1.03500E+3 3.65116E-3
1.03600E+3 3.69354E-3
1.03700E+3 3.73896E-3
1.03800E+3 3.78709E-3
1.03900E+3 3.83734E-3
1.04000E+3 3.88911E-3
1.04100E+3 3.94183E-3
1.04200E+3 3.99492E-3
1.04300E+3 4.04778E-3
1.04400E+3 4.09983E-3
1.04500E+3 4.15049E-3
1.04600E+3 4.19936E-3
1.04700E+3 4.24660E-3
1.04800E+3 4.29247E-3
1.04900E+3 4.33722E-3
1.05000E+3 4.38111E-3
1.05100E+3 4.42439E-3
1.05200E+3 4.46732E-3
1.05300E+3 4.51016E-3
1.05400E+3 4.55315E-3
1.05500E+3 4.59642E-3
1.05600E+3 4.63973E-3
1.05700E+3 4.68278E-3
1.05800E+3 4.72530E-3
1.05900E+3 4.76698E-3
1.06000E+3 4.80754E-3
1.06100E+3 4.84669E-3
1.06200E+3 4.88414E-3
1.06300E+3 4.91960E-3
1.06400E+3 4.95289E-3
1.06500E+3 4.98420E-3
1.06600E+3 5.01378E-3
1.06700E+3 5.04189E-3
1.06800E+3 5.06880E-3
1.06900E+3 5.09477E-3
1.07000E+3 5.12004E-3
1.07100E+3 5.14488E-3
1.07200E+3 5.16955E-3
1.07300E+3 5.19428E-3
1.07400E+3 5.21901E-3
1.07500E+3 5.24361E-3
1.07600E+3 5.26793E-3
1.07700E+3 5.29183E-3
1.07800E+3 5.31517E-3
1.07900E+3 5.33779E-3
1.08000E+3 5.35955E-3
1.08100E+3 5.38031E-3
1.08200E+3 5.39993E-3
1.08300E+3 5.41838E-3
1.08400E+3 5.43575E-3
1.08500E+3 5.45216E-3
1.08600E+3 5.46771E-3
1.08700E+3 5.48252E-3
1.08800E+3 5.49667E-3
1.08900E+3 5.51029E-3
1.09000E+3 5.52349E-3
1.09100E+3 5.53635E-3
1.09200E+3 5.54898E-3
1.09300E+3 5.56134E-3
1.09400E+3 5.57336E-3
1.09500E+3 5.58497E-3
1.09600E+3 5.59610E-3
1.09700E+3 5.60669E-3
1.09800E+3 5.61665E-3
1.09900E+3 5.62592E-3
1.10000E+3 5.63444E-3
1.10100E+3 5.64213E-3
1.10200E+3 5.64895E-3
1.10300E+3 5.65495E-3
1.10400E+3 5.66017E-3
1.10500E+3 5.66466E-3
1.10600E+3 5.66846E-3
1.10700E+3 5.67162E-3
1.10800E+3 5.67419E-3
1.10900E+3 5.67621E-3
1.11000E+3 5.67773E-3
1.11100E+3 5.67879E-3
1.11200E+3 5.67939E-3
1.11300E+3 5.67943E-3
1.11400E+3 5.67881E-3
1.11500E+3 5.67745E-3
1.11600E+3 5.67523E-3
1.11700E+3 5.67206E-3
1.11800E+3 5.66785E-3
1.11900E+3 5.66250E-3
1.12000E+3 5.65592E-3
1.12100E+3 5.64800E-3
1.12200E+3 5.63874E-3
1.12300E+3 5.62826E-3
1.12400E+3 5.61668E-3
1.12500E+3 5.60411E-3
1.12600E+3 5.59068E-3
1.12700E+3 5.57652E-3
1.12800E+3 5.56174E-3
1.12900E+3 5.54647E-3
1.13000E+3 5.53082E-3
1.13100E+3 5.51492E-3
1.13200E+3 5.49884E-3
1.13300E+3 5.48255E-3
1.13400E+3 5.46601E-3
1.13500E+3 5.44918E-3
1.13600E+3 5.43202E-3
1.13700E+3 5.41450E-3
1.13800E+3 5.39657E-3
1.13900E+3 5.37819E-3
1.14000E+3 5.35933E-3
1.14100E+3 5.33993E-3
1.14200E+3 5.31998E-3
1.14300E+3 5.29947E-3
1.14400E+3 5.27843E-3
1.14500E+3 5.25688E-3
1.14600E+3 5.23483E-3
1.14700E+3 5.21230E-3
1.14800E+3 5.18931E-3
1.14900E+3 5.16588E-3
1.15000E+3 5.14203E-3
1.15100E+3 5.11777E-3
1.15200E+3 5.09312E-3
1.15300E+3 5.06808E-3
1.15400E+3 5.04258E-3
1.15500E+3 5.01659E-3
1.15600E+3 4.99004E-3
1.15700E+3 4.96291E-3
1.15800E+3 4.93513E-3
1.15900E+3 4.90665E-3
1.16000E+3 4.87743E-3
1.16100E+3 4.84742E-3
1.16200E+3 4.81657E-3
1.16300E+3 4.78485E-3
1.16400E+3 4.75227E-3
1.16500E+3 4.71890E-3
1.16600E+3 4.68479E-3
1.16700E+3 4.65000E-3
1.16800E+3 4.61458E-3
1.16900E+3 4.57858E-3
1.17000E+3 4.54207E-3
1.17100E+3 4.50509E-3
1.17200E+3 4.46770E-3
1.17300E+3 4.42996E-3
1.17400E+3 4.39191E-3
1.17500E+3 4.35360E-3
1.17600E+3 4.31506E-3
1.17700E+3 4.27633E-3
1.17800E+3 4.23745E-3
1.17900E+3 4.19845E-3
1.18000E+3 4.15937E-3
1.18100E+3 4.12024E-3
1.18200E+3 4.08111E-3
1.18300E+3 4.04201E-3
1.18400E+3 4.00298E-3
1.18500E+3 3.96404E-3
1.18600E+3 3.92519E-3
1.18700E+3 3.88642E-3
1.18800E+3 3.84772E-3
1.18900E+3 3.80908E-3
1.19000E+3 3.77051E-3
1.19100E+3 3.73198E-3
1.19200E+3 3.69349E-3
