Lambda ArbUnit
4.64000E+2 4.19337E-6
4.65000E+2 5.10226E-6
4.66000E+2 5.75689E-6
4.67000E+2 6.31392E-6
4.68000E+2 6.97673E-6
4.69000E+2 7.79212E-6
4.70000E+2 8.55140E-6
4.71000E+2 9.39330E-6
4.72000E+2 1.02885E-5
4.73000E+2 1.10339E-5
4.74000E+2 1.17965E-5
4.75000E+2 1.25614E-5
4.76000E+2 1.36227E-5
4.77000E+2 1.44814E-5
4.78000E+2 1.48593E-5
4.79000E+2 1.62961E-5
4.80000E+2 1.71719E-5
4.81000E+2 1.81548E-5
4.82000E+2 1.90720E-5
4.83000E+2 1.98631E-5
4.84000E+2 2.06779E-5
4.85000E+2 2.15390E-5
4.86000E+2 2.23827E-5
4.87000E+2 2.33376E-5
4.88000E+2 2.43008E-5
4.89000E+2 2.51065E-5
4.90000E+2 2.62124E-5
4.91000E+2 2.75135E-5
4.92000E+2 2.86334E-5
4.93000E+2 2.97076E-5
4.94000E+2 3.10395E-5
4.95000E+2 3.23415E-5
4.96000E+2 3.38324E-5
4.97000E+2 3.55704E-5
4.98000E+2 3.72230E-5
4.99000E+2 3.88351E-5
5.00000E+2 4.05270E-5
5.01000E+2 4.24668E-5
5.02000E+2 4.43395E-5
5.03000E+2 4.58201E-5
5.04000E+2 4.71288E-5
5.05000E+2 4.87242E-5
5.06000E+2 5.05174E-5
5.07000E+2 5.21991E-5
5.08000E+2 5.42472E-5
5.09000E+2 5.67661E-5
5.10000E+2 5.86202E-5
5.11000E+2 6.02440E-5
5.12000E+2 6.24567E-5
5.13000E+2 6.46306E-5
5.14000E+2 6.63023E-5
5.15000E+2 6.81976E-5
5.16000E+2 7.12445E-5
5.17000E+2 7.46602E-5
5.18000E+2 7.68574E-5
5.19000E+2 7.93015E-5
5.20000E+2 8.19032E-5
5.21000E+2 8.41559E-5
5.22000E+2 8.63119E-5
5.23000E+2 8.91762E-5
5.24000E+2 9.26253E-5
5.25000E+2 9.60627E-5
5.26000E+2 9.90553E-5
5.27000E+2 1.01755E-4
5.28000E+2 1.04522E-4
5.29000E+2 1.07868E-4
5.30000E+2 1.11934E-4
5.31000E+2 1.15751E-4
5.32000E+2 1.19010E-4
5.33000E+2 1.21785E-4
5.34000E+2 1.24241E-4
5.35000E+2 1.27192E-4
5.36000E+2 1.30359E-4
5.37000E+2 1.32743E-4
5.38000E+2 1.34896E-4
5.39000E+2 1.37521E-4
5.40000E+2 1.40717E-4
5.41000E+2 1.43499E-4
5.42000E+2 1.45874E-4
5.43000E+2 1.48326E-4
5.44000E+2 1.50873E-4
5.45000E+2 1.53719E-4
5.46000E+2 1.56920E-4
5.47000E+2 1.59917E-4
5.48000E+2 1.62990E-4
5.49000E+2 1.66680E-4
5.50000E+2 1.70509E-4
5.51000E+2 1.74213E-4
5.52000E+2 1.77900E-4
5.53000E+2 1.81781E-4
5.54000E+2 1.85943E-4
5.55000E+2 1.90282E-4
5.56000E+2 1.94669E-4
5.57000E+2 1.99058E-4
5.58000E+2 2.03601E-4
5.59000E+2 2.08229E-4
5.60000E+2 2.12729E-4
5.61000E+2 2.17321E-4
5.62000E+2 2.22199E-4
5.63000E+2 2.27183E-4
5.64000E+2 2.31718E-4
5.65000E+2 2.35175E-4
5.66000E+2 2.38143E-4
5.67000E+2 2.41363E-4
5.68000E+2 2.44803E-4
5.69000E+2 2.48370E-4
5.70000E+2 2.52055E-4
5.71000E+2 2.55870E-4
5.72000E+2 2.59806E-4
5.73000E+2 2.63663E-4
5.74000E+2 2.67344E-4
5.75000E+2 2.71183E-4
5.76000E+2 2.75303E-4
5.77000E+2 2.79420E-4
5.78000E+2 2.83340E-4
5.79000E+2 2.86996E-4
5.80000E+2 2.90545E-4
5.81000E+2 2.94241E-4
5.82000E+2 2.98184E-4
5.83000E+2 3.02425E-4
5.84000E+2 3.07084E-4
5.85000E+2 3.12169E-4
5.86000E+2 3.17305E-4
5.87000E+2 3.22241E-4
5.88000E+2 3.27168E-4
5.89000E+2 3.32249E-4
5.90000E+2 3.37456E-4
5.91000E+2 3.42676E-4
5.92000E+2 3.47691E-4
5.93000E+2 3.52552E-4
5.94000E+2 3.57721E-4
5.95000E+2 3.63334E-4
5.96000E+2 3.69000E-4
5.97000E+2 3.74538E-4
5.98000E+2 3.80140E-4
5.99000E+2 3.85822E-4
6.00000E+2 3.91249E-4
6.01000E+2 3.96277E-4
6.02000E+2 4.01195E-4
6.03000E+2 4.06257E-4
6.04000E+2 4.11512E-4
6.05000E+2 4.16930E-4
6.06000E+2 4.22316E-4
6.07000E+2 4.27507E-4
6.08000E+2 4.32631E-4
6.09000E+2 4.37885E-4
6.10000E+2 4.43379E-4
6.11000E+2 4.49172E-4
6.12000E+2 4.55154E-4
6.13000E+2 4.61098E-4
6.14000E+2 4.66827E-4
6.15000E+2 4.72224E-4
6.16000E+2 4.77377E-4
6.17000E+2 4.82793E-4
6.18000E+2 4.88886E-4
6.19000E+2 4.95405E-4
6.20000E+2 5.01935E-4
6.21000E+2 5.08201E-4
6.22000E+2 5.14016E-4
6.23000E+2 5.19385E-4
6.24000E+2 5.24557E-4
6.25000E+2 5.29771E-4
6.26000E+2 5.35175E-4
6.27000E+2 5.40879E-4
6.28000E+2 5.46821E-4
6.29000E+2 5.52836E-4
6.30000E+2 5.58716E-4
6.31000E+2 5.64187E-4
6.32000E+2 5.69071E-4
6.33000E+2 5.73696E-4
6.34000E+2 5.78539E-4
6.35000E+2 5.83823E-4
6.36000E+2 5.89511E-4
6.37000E+2 5.95547E-4
6.38000E+2 6.01860E-4
6.39000E+2 6.08375E-4
6.40000E+2 6.14983E-4
6.41000E+2 6.21548E-4
6.42000E+2 6.28015E-4
6.43000E+2 6.34667E-4
6.44000E+2 6.41864E-4
6.45000E+2 6.49589E-4
6.46000E+2 6.57366E-4
6.47000E+2 6.64803E-4
6.48000E+2 6.72251E-4
6.49000E+2 6.80364E-4
6.50000E+2 6.89416E-4
6.51000E+2 6.98852E-4
6.52000E+2 7.08036E-4
6.53000E+2 7.16959E-4
6.54000E+2 7.26169E-4
6.55000E+2 7.36113E-4
6.56000E+2 7.46500E-4
6.57000E+2 7.56752E-4
6.58000E+2 7.66605E-4
6.59000E+2 7.76668E-4
6.60000E+2 7.87693E-4
6.61000E+2 7.99896E-4
6.62000E+2 8.12724E-4
6.63000E+2 8.25576E-4
6.64000E+2 8.38085E-4
6.65000E+2 8.50091E-4
6.66000E+2 8.61463E-4
6.67000E+2 8.72314E-4
6.68000E+2 8.82893E-4
6.69000E+2 8.93447E-4
6.70000E+2 9.04207E-4
6.71000E+2 9.15397E-4
6.72000E+2 9.27164E-4
6.73000E+2 9.39272E-4
6.74000E+2 9.51372E-4
6.75000E+2 9.63129E-4
6.76000E+2 9.74274E-4
6.77000E+2 9.84553E-4
6.78000E+2 9.93877E-4
6.79000E+2 1.00282E-3
6.80000E+2 1.01213E-3
6.81000E+2 1.02236E-3
6.82000E+2 1.03321E-3
6.83000E+2 1.04415E-3
6.84000E+2 1.05475E-3
6.85000E+2 1.06519E-3
6.86000E+2 1.07588E-3
6.87000E+2 1.08716E-3
6.88000E+2 1.09881E-3
6.89000E+2 1.11036E-3
6.90000E+2 1.12136E-3
6.91000E+2 1.13175E-3
6.92000E+2 1.14178E-3
6.93000E+2 1.15168E-3
6.94000E+2 1.16156E-3
6.95000E+2 1.17136E-3
6.96000E+2 1.18101E-3
6.97000E+2 1.19053E-3
6.98000E+2 1.20011E-3
6.99000E+2 1.20999E-3
7.00000E+2 1.22035E-3
7.01000E+2 1.23104E-3
7.02000E+2 1.24180E-3
7.03000E+2 1.25236E-3
7.04000E+2 1.26254E-3
7.05000E+2 1.27224E-3
7.06000E+2 1.28136E-3
7.07000E+2 1.28990E-3
7.08000E+2 1.29809E-3
7.09000E+2 1.30623E-3
7.10000E+2 1.31458E-3
7.11000E+2 1.32309E-3
7.12000E+2 1.33158E-3
7.13000E+2 1.33983E-3
7.14000E+2 1.34770E-3
7.15000E+2 1.35516E-3
7.16000E+2 1.36216E-3
7.17000E+2 1.36871E-3
7.18000E+2 1.37483E-3
7.19000E+2 1.38064E-3
7.20000E+2 1.38622E-3
7.21000E+2 1.39162E-3
7.22000E+2 1.39679E-3
7.23000E+2 1.40165E-3
7.24000E+2 1.40614E-3
7.25000E+2 1.41017E-3
7.26000E+2 1.41370E-3
7.27000E+2 1.41666E-3
7.28000E+2 1.41900E-3
7.29000E+2 1.42076E-3
7.30000E+2 1.42201E-3
7.31000E+2 1.42284E-3
7.32000E+2 1.42330E-3
7.33000E+2 1.42331E-3
7.34000E+2 1.42281E-3
7.35000E+2 1.42170E-3
7.36000E+2 1.41990E-3
7.37000E+2 1.41728E-3
7.38000E+2 1.41376E-3
7.39000E+2 1.40922E-3
7.40000E+2 1.40369E-3
7.41000E+2 1.39740E-3
7.42000E+2 1.39061E-3
7.43000E+2 1.38356E-3
7.44000E+2 1.37620E-3
7.45000E+2 1.36819E-3
7.46000E+2 1.35915E-3
7.47000E+2 1.34872E-3
7.48000E+2 1.33678E-3
7.49000E+2 1.32350E-3
7.50000E+2 1.30905E-3
7.51000E+2 1.29362E-3
7.52000E+2 1.27737E-3
7.53000E+2 1.26042E-3
7.54000E+2 1.24292E-3
7.55000E+2 1.22501E-3
7.56000E+2 1.20693E-3
7.57000E+2 1.18913E-3
7.58000E+2 1.17203E-3
7.59000E+2 1.15609E-3
7.60000E+2 1.14143E-3
7.61000E+2 1.12738E-3
7.62000E+2 1.11313E-3
7.63000E+2 1.09789E-3
7.64000E+2 1.08106E-3
7.65000E+2 1.06298E-3
7.66000E+2 1.04430E-3
7.67000E+2 1.02565E-3
7.68000E+2 1.00763E-3
7.69000E+2 9.90322E-4
7.70000E+2 9.73469E-4
7.71000E+2 9.56796E-4
7.72000E+2 9.40035E-4
7.73000E+2 9.23036E-4
7.74000E+2 9.05866E-4
7.75000E+2 8.88612E-4
7.76000E+2 8.71364E-4
7.77000E+2 8.54178E-4
7.78000E+2 8.36927E-4
7.79000E+2 8.19412E-4
7.80000E+2 8.01433E-4
7.81000E+2 7.82794E-4
7.82000E+2 7.63471E-4
7.83000E+2 7.43684E-4
7.84000E+2 7.23672E-4
7.85000E+2 7.03676E-4
7.86000E+2 6.83905E-4
7.87000E+2 6.64337E-4
7.88000E+2 6.44846E-4
7.89000E+2 6.25306E-4
7.90000E+2 6.05591E-4
7.91000E+2 5.85702E-4
7.92000E+2 5.65962E-4
7.93000E+2 5.46744E-4
7.94000E+2 5.28420E-4
7.95000E+2 5.11360E-4
7.96000E+2 4.95794E-4
7.97000E+2 4.81791E-4
7.98000E+2 4.69415E-4
7.99000E+2 4.58727E-4
8.00000E+2 4.49793E-4
8.01000E+2 4.42752E-4
8.02000E+2 4.37786E-4
8.03000E+2 4.35079E-4
8.04000E+2 4.34815E-4
8.05000E+2 4.37140E-4
8.06000E+2 4.41896E-4
8.07000E+2 4.48788E-4
8.08000E+2 4.57520E-4
8.09000E+2 4.67797E-4
8.10000E+2 4.79343E-4
8.11000E+2 4.92004E-4
8.12000E+2 5.05680E-4
8.13000E+2 5.20265E-4
8.14000E+2 5.35657E-4
8.15000E+2 5.51733E-4
8.16000E+2 5.68234E-4
8.17000E+2 5.84844E-4
8.18000E+2 6.01247E-4
8.19000E+2 6.17127E-4
8.20000E+2 6.32184E-4
8.21000E+2 6.46272E-4
8.22000E+2 6.59329E-4
8.23000E+2 6.71296E-4
8.24000E+2 6.82110E-4
8.25000E+2 6.91715E-4
8.26000E+2 7.00108E-4
8.27000E+2 7.07335E-4
8.28000E+2 7.13443E-4
8.29000E+2 7.18481E-4
8.30000E+2 7.22497E-4
8.31000E+2 7.25518E-4
8.32000E+2 7.27532E-4
8.33000E+2 7.28523E-4
8.34000E+2 7.28476E-4
8.35000E+2 7.27374E-4
8.36000E+2 7.25196E-4
8.37000E+2 7.21893E-4
8.38000E+2 7.17405E-4
8.39000E+2 7.11673E-4
8.40000E+2 7.04637E-4
8.41000E+2 6.96244E-4
8.42000E+2 6.86552E-4
8.43000E+2 6.75748E-4
8.44000E+2 6.64024E-4
8.45000E+2 6.51574E-4
8.46000E+2 6.38589E-4
8.47000E+2 6.25262E-4
8.48000E+2 6.11776E-4
8.49000E+2 5.98313E-4
8.50000E+2 5.85054E-4
8.51000E+2 5.72180E-4
8.52000E+2 5.59872E-4
8.53000E+2 5.48195E-4
8.54000E+2 5.37019E-4
8.55000E+2 5.26198E-4
8.56000E+2 5.15584E-4
8.57000E+2 5.05030E-4
8.58000E+2 4.94399E-4
8.59000E+2 4.83702E-4
8.60000E+2 4.73071E-4
8.61000E+2 4.62641E-4
8.62000E+2 4.52547E-4
8.63000E+2 4.42925E-4
8.64000E+2 4.33902E-4
8.65000E+2 4.25547E-4
8.66000E+2 4.17903E-4
8.67000E+2 4.11009E-4
8.68000E+2 4.04908E-4
8.69000E+2 3.99639E-4
8.70000E+2 3.95253E-4
8.71000E+2 3.91852E-4
8.72000E+2 3.89556E-4
8.73000E+2 3.88486E-4
8.74000E+2 3.88765E-4
8.75000E+2 3.90513E-4
8.76000E+2 3.93839E-4
8.77000E+2 3.98777E-4
8.78000E+2 4.05331E-4
8.79000E+2 4.13506E-4
8.80000E+2 4.23307E-4
8.81000E+2 4.34737E-4
8.82000E+2 4.47793E-4
8.83000E+2 4.62408E-4
8.84000E+2 4.78479E-4
8.85000E+2 4.95901E-4
8.86000E+2 5.14573E-4
8.87000E+2 5.34392E-4
8.88000E+2 5.55254E-4
8.89000E+2 5.77062E-4
8.90000E+2 5.99724E-4
8.91000E+2 6.23149E-4
8.92000E+2 6.47244E-4
8.93000E+2 6.71917E-4
8.94000E+2 6.97077E-4
8.95000E+2 7.22687E-4
8.96000E+2 7.48829E-4
8.97000E+2 7.75598E-4
8.98000E+2 8.03090E-4
8.99000E+2 8.31400E-4
9.00000E+2 8.60626E-4
9.01000E+2 8.90843E-4
9.02000E+2 9.21994E-4
9.03000E+2 9.53962E-4
9.04000E+2 9.86627E-4
9.05000E+2 1.01987E-3
9.06000E+2 1.05358E-3
9.07000E+2 1.08762E-3
9.08000E+2 1.12187E-3
9.09000E+2 1.15616E-3
9.10000E+2 1.19031E-3
9.11000E+2 1.22416E-3
9.12000E+2 1.25752E-3
9.13000E+2 1.29022E-3
9.14000E+2 1.32211E-3
9.15000E+2 1.35309E-3
9.16000E+2 1.38315E-3
9.17000E+2 1.41226E-3
9.18000E+2 1.44040E-3
9.19000E+2 1.46756E-3
9.20000E+2 1.49371E-3
9.21000E+2 1.51885E-3
9.22000E+2 1.54306E-3
9.23000E+2 1.56646E-3
9.24000E+2 1.58919E-3
9.25000E+2 1.61135E-3
9.26000E+2 1.63308E-3
9.27000E+2 1.65448E-3
9.28000E+2 1.67564E-3
9.29000E+2 1.69642E-3
9.30000E+2 1.71666E-3
9.31000E+2 1.73620E-3
9.32000E+2 1.75487E-3
9.33000E+2 1.77249E-3
9.34000E+2 1.78890E-3
9.35000E+2 1.80397E-3
9.36000E+2 1.81770E-3
9.37000E+2 1.83010E-3
9.38000E+2 1.84119E-3
9.39000E+2 1.85101E-3
9.40000E+2 1.85956E-3
9.41000E+2 1.86687E-3
9.42000E+2 1.87297E-3
9.43000E+2 1.87793E-3
9.44000E+2 1.88182E-3
9.45000E+2 1.88473E-3
9.46000E+2 1.88672E-3
9.47000E+2 1.88789E-3
9.48000E+2 1.88831E-3
9.49000E+2 1.88806E-3
9.50000E+2 1.88720E-3
9.51000E+2 1.88578E-3
9.52000E+2 1.88387E-3
9.53000E+2 1.88151E-3
9.54000E+2 1.87877E-3
9.55000E+2 1.87569E-3
9.56000E+2 1.87234E-3
9.57000E+2 1.86877E-3
9.58000E+2 1.86506E-3
9.59000E+2 1.86127E-3
9.60000E+2 1.85747E-3
9.61000E+2 1.85374E-3
9.62000E+2 1.85013E-3
9.63000E+2 1.84673E-3
9.64000E+2 1.84358E-3
9.65000E+2 1.84068E-3
9.66000E+2 1.83800E-3
9.67000E+2 1.83552E-3
9.68000E+2 1.83319E-3
9.69000E+2 1.83101E-3
9.70000E+2 1.82894E-3
9.71000E+2 1.82695E-3
9.72000E+2 1.82503E-3
9.73000E+2 1.82318E-3
9.74000E+2 1.82139E-3
9.75000E+2 1.81968E-3
9.76000E+2 1.81803E-3
9.77000E+2 1.81646E-3
9.78000E+2 1.81496E-3
9.79000E+2 1.81353E-3
9.80000E+2 1.81220E-3
9.81000E+2 1.81098E-3
9.82000E+2 1.80991E-3
9.83000E+2 1.80901E-3
9.84000E+2 1.80830E-3
9.85000E+2 1.80781E-3
9.86000E+2 1.80758E-3
9.87000E+2 1.80761E-3
9.88000E+2 1.80798E-3
9.89000E+2 1.80872E-3
9.90000E+2 1.80990E-3
9.91000E+2 1.81157E-3
9.92000E+2 1.81380E-3
9.93000E+2 1.81664E-3
9.94000E+2 1.82014E-3
9.95000E+2 1.82435E-3
9.96000E+2 1.82928E-3
9.97000E+2 1.83492E-3
9.98000E+2 1.84126E-3
9.99000E+2 1.84826E-3
1.00000E+3 1.85593E-3
1.00100E+3 1.86425E-3
1.00200E+3 1.87320E-3
1.00300E+3 1.88277E-3
1.00400E+3 1.89302E-3
1.00500E+3 1.90403E-3
1.00600E+3 1.91589E-3
1.00700E+3 1.92868E-3
1.00800E+3 1.94250E-3
1.00900E+3 1.95742E-3
1.01000E+3 1.97354E-3
1.01100E+3 1.99093E-3
1.01200E+3 2.00957E-3
1.01300E+3 2.02934E-3
1.01400E+3 2.05010E-3
1.01500E+3 2.07170E-3
1.01600E+3 2.09401E-3
1.01700E+3 2.11690E-3
1.01800E+3 2.14021E-3
1.01900E+3 2.16382E-3
1.02000E+3 2.18763E-3
1.02100E+3 2.21167E-3
1.02200E+3 2.23600E-3
1.02300E+3 2.26066E-3
1.02400E+3 2.28572E-3
1.02500E+3 2.31124E-3
1.02600E+3 2.33726E-3
1.02700E+3 2.36385E-3
1.02800E+3 2.39105E-3
1.02900E+3 2.41888E-3
1.03000E+3 2.44731E-3
1.03100E+3 2.47630E-3
1.03200E+3 2.50583E-3
1.03300E+3 2.53587E-3
1.03400E+3 2.56638E-3
1.03500E+3 2.59734E-3
1.03600E+3 2.62872E-3
1.03700E+3 2.66049E-3
1.03800E+3 2.69265E-3
1.03900E+3 2.72520E-3
1.04000E+3 2.75816E-3
1.04100E+3 2.79153E-3
1.04200E+3 2.82532E-3
1.04300E+3 2.85953E-3
1.04400E+3 2.89416E-3
1.04500E+3 2.92923E-3
1.04600E+3 2.96472E-3
1.04700E+3 3.00056E-3
1.04800E+3 3.03668E-3
1.04900E+3 3.07299E-3
1.05000E+3 3.10941E-3
1.05100E+3 3.14588E-3
1.05200E+3 3.18230E-3
1.05300E+3 3.21860E-3
1.05400E+3 3.25471E-3
1.05500E+3 3.29053E-3
1.05600E+3 3.32598E-3
1.05700E+3 3.36094E-3
1.05800E+3 3.39532E-3
1.05900E+3 3.42901E-3
1.06000E+3 3.46192E-3
1.06100E+3 3.49395E-3
1.06200E+3 3.52499E-3
1.06300E+3 3.55495E-3
1.06400E+3 3.58375E-3
1.06500E+3 3.61141E-3
1.06600E+3 3.63798E-3
1.06700E+3 3.66350E-3
1.06800E+3 3.68800E-3
1.06900E+3 3.71154E-3
1.07000E+3 3.73414E-3
1.07100E+3 3.75586E-3
1.07200E+3 3.77673E-3
1.07300E+3 3.79680E-3
1.07400E+3 3.81611E-3
1.07500E+3 3.83470E-3
1.07600E+3 3.85264E-3
1.07700E+3 3.86996E-3
1.07800E+3 3.88671E-3
1.07900E+3 3.90294E-3
1.08000E+3 3.91870E-3
1.08100E+3 3.93404E-3
1.08200E+3 3.94900E-3
1.08300E+3 3.96360E-3
1.08400E+3 3.97783E-3
1.08500E+3 3.99167E-3
1.08600E+3 4.00511E-3
1.08700E+3 4.01812E-3
1.08800E+3 4.03070E-3
1.08900E+3 4.04283E-3
1.09000E+3 4.05449E-3
1.09100E+3 4.06566E-3
1.09200E+3 4.07633E-3
1.09300E+3 4.08649E-3
1.09400E+3 4.09611E-3
1.09500E+3 4.10517E-3
1.09600E+3 4.11367E-3
1.09700E+3 4.12158E-3
1.09800E+3 4.12889E-3
1.09900E+3 4.13558E-3
1.10000E+3 4.14163E-3
1.10100E+3 4.14702E-3
1.10200E+3 4.15175E-3
1.10300E+3 4.15584E-3
1.10400E+3 4.15932E-3
1.10500E+3 4.16220E-3
1.10600E+3 4.16452E-3
1.10700E+3 4.16629E-3
1.10800E+3 4.16753E-3
1.10900E+3 4.16829E-3
1.11000E+3 4.16856E-3
1.11100E+3 4.16839E-3
1.11200E+3 4.16776E-3
1.11300E+3 4.16660E-3
1.11400E+3 4.16484E-3
1.11500E+3 4.16243E-3
1.11600E+3 4.15930E-3
1.11700E+3 4.15537E-3
1.11800E+3 4.15059E-3
1.11900E+3 4.14489E-3
1.12000E+3 4.13820E-3
1.12100E+3 4.13045E-3
1.12200E+3 4.12166E-3
1.12300E+3 4.11194E-3
1.12400E+3 4.10139E-3
1.12500E+3 4.09013E-3
1.12600E+3 4.07828E-3
1.12700E+3 4.06595E-3
1.12800E+3 4.05326E-3
1.12900E+3 4.04031E-3
1.13000E+3 4.02722E-3
1.13100E+3 4.01411E-3
1.13200E+3 4.00104E-3
1.13300E+3 3.98799E-3
1.13400E+3 3.97492E-3
1.13500E+3 3.96180E-3
1.13600E+3 3.94858E-3
1.13700E+3 3.93524E-3
1.13800E+3 3.92174E-3
1.13900E+3 3.90804E-3
1.14000E+3 3.89411E-3
1.14100E+3 3.87991E-3
1.14200E+3 3.86540E-3
1.14300E+3 3.85054E-3
1.14400E+3 3.83527E-3
1.14500E+3 3.81954E-3
1.14600E+3 3.80330E-3
1.14700E+3 3.78650E-3
1.14800E+3 3.76909E-3
1.14900E+3 3.75102E-3
1.15000E+3 3.73223E-3
1.15100E+3 3.71268E-3
1.15200E+3 3.69232E-3
1.15300E+3 3.67115E-3
1.15400E+3 3.64923E-3
1.15500E+3 3.62662E-3
1.15600E+3 3.60338E-3
1.15700E+3 3.57957E-3
1.15800E+3 3.55526E-3
1.15900E+3 3.53051E-3
1.16000E+3 3.50537E-3
1.16100E+3 3.47991E-3
1.16200E+3 3.45420E-3
1.16300E+3 3.42828E-3
1.16400E+3 3.40215E-3
1.16500E+3 3.37581E-3
1.16600E+3 3.34923E-3
1.16700E+3 3.32239E-3
1.16800E+3 3.29529E-3
1.16900E+3 3.26790E-3
1.17000E+3 3.24021E-3
1.17100E+3 3.21220E-3
1.17200E+3 3.18385E-3
1.17300E+3 3.15515E-3
1.17400E+3 3.12611E-3
1.17500E+3 3.09676E-3
1.17600E+3 3.06719E-3
1.17700E+3 3.03744E-3
1.17800E+3 3.00760E-3
1.17900E+3 2.97771E-3
1.18000E+3 2.94784E-3
1.18100E+3 2.91807E-3
1.18200E+3 2.88844E-3
1.18300E+3 2.85903E-3
1.18400E+3 2.82990E-3
1.18500E+3 2.80109E-3
1.18600E+3 2.77258E-3
1.18700E+3 2.74434E-3
1.18800E+3 2.71634E-3
1.18900E+3 2.68857E-3
1.19000E+3 2.66098E-3
1.19100E+3 2.63356E-3
1.19200E+3 2.60628E-3
