/absorption data for Si
/from Schinke at el / AIP ADVANCES 5, 067168 (2015)
/lambda[nm]	alfa[m^-1]
250  1.804E+08
260  1.930E+08
270  2.139E+08
280  2.332E+08
290  2.302E+08
300  1.797E+08
310  1.469E+08
320  1.289E+08
330  1.178E+08
340  1.093E+08
350  1.044E+08
360  1.017E+08
370  7.269E+07
380  3.254E+07
390  1.621E+07
400  1.025E+07
410  7.395E+06
420  5.294E+06
430  4.023E+06
440  3.199E+06
450  2.663E+06
460  2.161E+06
470  1.878E+06
480  1.566E+06
490  1.380E+06
500  1.220E+06
510  1.080E+06
520  9.553E+05
530  8.252E+05
540  6.957E+05
550  6.406E+05
560  5.958E+05
570  5.235E+05
580  4.744E+05
590  4.276E+05
600  3.879E+05
610  3.555E+05
620  3.407E+05
630  3.245E+05
640  2.885E+05
650  2.793E+05
660  2.591E+05
670  2.402E+05
680  2.226E+05
690  2.061E+05
700  1.907E+05
710  1.763E+05
720  1.629E+05
730  1.503E+05
740  1.386E+05
750  1.276E+05
760  1.173E+05
770  1.078E+05
780  9.882E+04
790  9.049E+04
800  8.271E+04
810  7.546E+04
820  6.871E+04
830  6.243E+04
840  5.659E+04
850  5.116E+04
860  4.612E+04
870  4.145E+04
880  3.713E+04
890  3.313E+04
900  2.945E+04
910  2.605E+04
920  2.293E+04
930  1.994E+04
940  1.746E+04
950  1.507E+04
960  1.286E+04
970  1.089E+04
980  9.147E+03
990  7.570E+03
1000  6.160E+03
1010  4.929E+03
1020  3.873E+03
1030  2.934E+03
1040  2.170E+03
1050  1.561E+03
1060  1.096E+03
1070  7.965E+02
1080  6.070E+02
1090  4.585E+02
1100  3.452E+02
1110  2.594E+02
1120  1.915E+02
1130  1.377E+02
1140  9.503E+01
1150  6.215E+01
1160  3.713E+01
1170  1.896E+01
1180  5.917E+00
1190  2.445E+00
1200  1.456E+00
1210  8.398E-01
1220  4.938E-01
1230  2.772E-01
1240  1.451E-01
1250  5.911E-02
1260  2.329E-02
1270  1.258E-02
1280  7.391E-03
1290  4.364E-03
1300  2.632E-03
1310  1.521E-03
1320  8.301E-04
1330  3.972E-04
1340  1.700E-04
1350  9.707E-05
1360  5.813E-05
1370  3.580E-05
1380  2.401E-05
1390  1.571E-05
1400  9.360E-06
1410  5.385E-06
1420  3.796E-06
1430  1.791E-06
1440  1.203E-06
1450  9.447E-07
