Lambda ArbUnit
4.64000E+2 2.28696E+14
4.65000E+2 2.32993E+14
4.66000E+2 2.35999E+14
4.67000E+2 2.41967E+14
4.68000E+2 2.47076E+14
4.69000E+2 2.50900E+14
4.70000E+2 2.56621E+14
4.71000E+2 2.64881E+14
4.72000E+2 2.69053E+14
4.73000E+2 2.72385E+14
4.74000E+2 2.78348E+14
4.75000E+2 2.81965E+14
4.76000E+2 2.86109E+14
4.77000E+2 2.88476E+14
4.78000E+2 2.91386E+14
4.79000E+2 2.94893E+14
4.80000E+2 2.97102E+14
4.81000E+2 2.99181E+14
4.82000E+2 3.02292E+14
4.83000E+2 3.06916E+14
4.84000E+2 3.11386E+14
4.85000E+2 3.18294E+14
4.86000E+2 3.24178E+14
4.87000E+2 3.30581E+14
4.88000E+2 3.35898E+14
4.89000E+2 3.44605E+14
4.90000E+2 3.54467E+14
4.91000E+2 3.64594E+14
4.92000E+2 3.72575E+14
4.93000E+2 3.83503E+14
4.94000E+2 3.92833E+14
4.95000E+2 4.00605E+14
4.96000E+2 4.07152E+14
4.97000E+2 4.12792E+14
4.98000E+2 4.19940E+14
4.99000E+2 4.27948E+14
5.00000E+2 4.36549E+14
5.01000E+2 4.48109E+14
5.02000E+2 4.58775E+14
5.03000E+2 4.69543E+14
5.04000E+2 4.77979E+14
5.05000E+2 4.85397E+14
5.06000E+2 4.93353E+14
5.07000E+2 5.00539E+14
5.08000E+2 5.09782E+14
5.09000E+2 5.18176E+14
5.10000E+2 5.25935E+14
5.11000E+2 5.33670E+14
5.12000E+2 5.41653E+14
5.13000E+2 5.50067E+14
5.14000E+2 5.57398E+14
5.15000E+2 5.64568E+14
5.16000E+2 5.73030E+14
5.17000E+2 5.83309E+14
5.18000E+2 5.94289E+14
5.19000E+2 6.03346E+14
5.20000E+2 6.12202E+14
5.21000E+2 6.21241E+14
5.22000E+2 6.30354E+14
5.23000E+2 6.42564E+14
5.24000E+2 6.54279E+14
5.25000E+2 6.64406E+14
5.26000E+2 6.73998E+14
5.27000E+2 6.81971E+14
5.28000E+2 6.91430E+14
5.29000E+2 7.01480E+14
5.30000E+2 7.08630E+14
5.31000E+2 7.15300E+14
5.32000E+2 7.21453E+14
5.33000E+2 7.27217E+14
5.34000E+2 7.34529E+14
5.35000E+2 7.41739E+14
5.36000E+2 7.48598E+14
5.37000E+2 7.56772E+14
5.38000E+2 7.66373E+14
5.39000E+2 7.75184E+14
5.40000E+2 7.82181E+14
5.41000E+2 7.91868E+14
5.42000E+2 8.02444E+14
5.43000E+2 8.11302E+14
5.44000E+2 8.22732E+14
5.45000E+2 8.35177E+14
5.46000E+2 8.45830E+14
5.47000E+2 8.57717E+14
5.48000E+2 8.70492E+14
5.49000E+2 8.82502E+14
5.50000E+2 8.95980E+14
5.51000E+2 9.11109E+14
5.52000E+2 9.26124E+14
5.53000E+2 9.41193E+14
5.54000E+2 9.56093E+14
5.55000E+2 9.69695E+14
5.56000E+2 9.83453E+14
5.57000E+2 9.98653E+14
5.58000E+2 1.01323E+15
5.59000E+2 1.02467E+15
5.60000E+2 1.03140E+15
5.61000E+2 1.03690E+15
5.62000E+2 1.04423E+15
5.63000E+2 1.05228E+15
5.64000E+2 1.06054E+15
5.65000E+2 1.06945E+15
5.66000E+2 1.07947E+15
5.67000E+2 1.09055E+15
5.68000E+2 1.10122E+15
5.69000E+2 1.11169E+15
5.70000E+2 1.12409E+15
5.71000E+2 1.13732E+15
5.72000E+2 1.14886E+15
5.73000E+2 1.15903E+15
5.74000E+2 1.16872E+15
5.75000E+2 1.17791E+15
5.76000E+2 1.18698E+15
5.77000E+2 1.19709E+15
5.78000E+2 1.20868E+15
5.79000E+2 1.22129E+15
5.80000E+2 1.23465E+15
5.81000E+2 1.24859E+15
5.82000E+2 1.26338E+15
5.83000E+2 1.27913E+15
5.84000E+2 1.29487E+15
5.85000E+2 1.30972E+15
5.86000E+2 1.32374E+15
5.87000E+2 1.33737E+15
5.88000E+2 1.35137E+15
5.89000E+2 1.36616E+15
5.90000E+2 1.38148E+15
5.91000E+2 1.39670E+15
5.92000E+2 1.41087E+15
5.93000E+2 1.42416E+15
5.94000E+2 1.43846E+15
5.95000E+2 1.45397E+15
5.96000E+2 1.46822E+15
5.97000E+2 1.48060E+15
5.98000E+2 1.49357E+15
5.99000E+2 1.50792E+15
6.00000E+2 1.52151E+15
6.01000E+2 1.53363E+15
6.02000E+2 1.54678E+15
6.03000E+2 1.56221E+15
6.04000E+2 1.57729E+15
6.05000E+2 1.58999E+15
6.06000E+2 1.60175E+15
6.07000E+2 1.61439E+15
6.08000E+2 1.62823E+15
6.09000E+2 1.64301E+15
6.10000E+2 1.65764E+15
6.11000E+2 1.67082E+15
6.12000E+2 1.68251E+15
6.13000E+2 1.69346E+15
6.14000E+2 1.70427E+15
6.15000E+2 1.71536E+15
6.16000E+2 1.72684E+15
6.17000E+2 1.73822E+15
6.18000E+2 1.74911E+15
6.19000E+2 1.75990E+15
6.20000E+2 1.77109E+15
6.21000E+2 1.78242E+15
6.22000E+2 1.79320E+15
6.23000E+2 1.80317E+15
6.24000E+2 1.81255E+15
6.25000E+2 1.82169E+15
6.26000E+2 1.83091E+15
6.27000E+2 1.84054E+15
6.28000E+2 1.85068E+15
6.29000E+2 1.86123E+15
6.30000E+2 1.87227E+15
6.31000E+2 1.88418E+15
6.32000E+2 1.89725E+15
6.33000E+2 1.91101E+15
6.34000E+2 1.92482E+15
6.35000E+2 1.93873E+15
6.36000E+2 1.95338E+15
6.37000E+2 1.96924E+15
6.38000E+2 1.98573E+15
6.39000E+2 2.00211E+15
6.40000E+2 2.01827E+15
6.41000E+2 2.03478E+15
6.42000E+2 2.05206E+15
6.43000E+2 2.06987E+15
6.44000E+2 2.08780E+15
6.45000E+2 2.10584E+15
6.46000E+2 2.12434E+15
6.47000E+2 2.14362E+15
6.48000E+2 2.16369E+15
6.49000E+2 2.18443E+15
6.50000E+2 2.20564E+15
6.51000E+2 2.22679E+15
6.52000E+2 2.24737E+15
6.53000E+2 2.26786E+15
6.54000E+2 2.28961E+15
6.55000E+2 2.31362E+15
6.56000E+2 2.33932E+15
6.57000E+2 2.36568E+15
6.58000E+2 2.39181E+15
6.59000E+2 2.41731E+15
6.60000E+2 2.44193E+15
6.61000E+2 2.46561E+15
6.62000E+2 2.48841E+15
6.63000E+2 2.51042E+15
6.64000E+2 2.53183E+15
6.65000E+2 2.55300E+15
6.66000E+2 2.57435E+15
6.67000E+2 2.59642E+15
6.68000E+2 2.61981E+15
6.69000E+2 2.64498E+15
6.70000E+2 2.67125E+15
6.71000E+2 2.69762E+15
6.72000E+2 2.72324E+15
6.73000E+2 2.74807E+15
6.74000E+2 2.77237E+15
6.75000E+2 2.79631E+15
6.76000E+2 2.81965E+15
6.77000E+2 2.84219E+15
6.78000E+2 2.86395E+15
6.79000E+2 2.88583E+15
6.80000E+2 2.90913E+15
6.81000E+2 2.93477E+15
6.82000E+2 2.96200E+15
6.83000E+2 2.98965E+15
6.84000E+2 3.01668E+15
6.85000E+2 3.04245E+15
6.86000E+2 3.06673E+15
6.87000E+2 3.08923E+15
6.88000E+2 3.11069E+15
6.89000E+2 3.13235E+15
6.90000E+2 3.15535E+15
6.91000E+2 3.17943E+15
6.92000E+2 3.20336E+15
6.93000E+2 3.22586E+15
6.94000E+2 3.24680E+15
6.95000E+2 3.26734E+15
6.96000E+2 3.28872E+15
6.97000E+2 3.31157E+15
6.98000E+2 3.33493E+15
6.99000E+2 3.35764E+15
7.00000E+2 3.37873E+15
7.01000E+2 3.39836E+15
7.02000E+2 3.41719E+15
7.03000E+2 3.43575E+15
7.04000E+2 3.45430E+15
7.05000E+2 3.47278E+15
7.06000E+2 3.49119E+15
7.07000E+2 3.50946E+15
7.08000E+2 3.52775E+15
7.09000E+2 3.54618E+15
7.10000E+2 3.56486E+15
7.11000E+2 3.58321E+15
7.12000E+2 3.60044E+15
7.13000E+2 3.61574E+15
7.14000E+2 3.62875E+15
7.15000E+2 3.64009E+15
7.16000E+2 3.65071E+15
7.17000E+2 3.66135E+15
7.18000E+2 3.67209E+15
7.19000E+2 3.68265E+15
7.20000E+2 3.69270E+15
7.21000E+2 3.70198E+15
7.22000E+2 3.71020E+15
7.23000E+2 3.71721E+15
7.24000E+2 3.72274E+15
7.25000E+2 3.72665E+15
7.26000E+2 3.72895E+15
7.27000E+2 3.72962E+15
7.28000E+2 3.72876E+15
7.29000E+2 3.72654E+15
7.30000E+2 3.72335E+15
7.31000E+2 3.71959E+15
7.32000E+2 3.71540E+15
7.33000E+2 3.71033E+15
7.34000E+2 3.70367E+15
7.35000E+2 3.69483E+15
7.36000E+2 3.68343E+15
7.37000E+2 3.66959E+15
7.38000E+2 3.65367E+15
7.39000E+2 3.63596E+15
7.40000E+2 3.61651E+15
7.41000E+2 3.59525E+15
7.42000E+2 3.57205E+15
7.43000E+2 3.54679E+15
7.44000E+2 3.51947E+15
7.45000E+2 3.49028E+15
7.46000E+2 3.45935E+15
7.47000E+2 3.42686E+15
7.48000E+2 3.39253E+15
7.49000E+2 3.35572E+15
7.50000E+2 3.31581E+15
7.51000E+2 3.27217E+15
7.52000E+2 3.22508E+15
7.53000E+2 3.17601E+15
7.54000E+2 3.12645E+15
7.55000E+2 3.07795E+15
7.56000E+2 3.03161E+15
7.57000E+2 2.98797E+15
7.58000E+2 2.94747E+15
7.59000E+2 2.91059E+15
7.60000E+2 2.87706E+15
7.61000E+2 2.84480E+15
7.62000E+2 2.81149E+15
7.63000E+2 2.77480E+15
7.64000E+2 2.73300E+15
7.65000E+2 2.68728E+15
7.66000E+2 2.63965E+15
7.67000E+2 2.59221E+15
7.68000E+2 2.54687E+15
7.69000E+2 2.50388E+15
7.70000E+2 2.46229E+15
7.71000E+2 2.42125E+15
7.72000E+2 2.37974E+15
7.73000E+2 2.33730E+15
7.74000E+2 2.29420E+15
7.75000E+2 2.25069E+15
7.76000E+2 2.20711E+15
7.77000E+2 2.16367E+15
7.78000E+2 2.12012E+15
7.79000E+2 2.07608E+15
7.80000E+2 2.03109E+15
7.81000E+2 1.98474E+15
7.82000E+2 1.93690E+15
7.83000E+2 1.88784E+15
7.84000E+2 1.83790E+15
7.85000E+2 1.78736E+15
7.86000E+2 1.73649E+15
7.87000E+2 1.68537E+15
7.88000E+2 1.63402E+15
7.89000E+2 1.58239E+15
7.90000E+2 1.53047E+15
7.91000E+2 1.47854E+15
7.92000E+2 1.42747E+15
7.93000E+2 1.37821E+15
7.94000E+2 1.33176E+15
7.95000E+2 1.28910E+15
7.96000E+2 1.25071E+15
7.97000E+2 1.21653E+15
7.98000E+2 1.18645E+15
7.99000E+2 1.16041E+15
8.00000E+2 1.13832E+15
8.01000E+2 1.12047E+15
8.02000E+2 1.10737E+15
8.03000E+2 1.09955E+15
8.04000E+2 1.09753E+15
8.05000E+2 1.10171E+15
8.06000E+2 1.11180E+15
8.07000E+2 1.12718E+15
8.08000E+2 1.14722E+15
8.09000E+2 1.17130E+15
8.10000E+2 1.19879E+15
8.11000E+2 1.22930E+15
8.12000E+2 1.26250E+15
8.13000E+2 1.29802E+15
8.14000E+2 1.33552E+15
8.15000E+2 1.37461E+15
8.16000E+2 1.41466E+15
8.17000E+2 1.45493E+15
8.18000E+2 1.49467E+15
8.19000E+2 1.53313E+15
8.20000E+2 1.56960E+15
8.21000E+2 1.60371E+15
8.22000E+2 1.63529E+15
8.23000E+2 1.66414E+15
8.24000E+2 1.69012E+15
8.25000E+2 1.71304E+15
8.26000E+2 1.73290E+15
8.27000E+2 1.74981E+15
8.28000E+2 1.76392E+15
8.29000E+2 1.77531E+15
8.30000E+2 1.78410E+15
8.31000E+2 1.79040E+15
8.32000E+2 1.79418E+15
8.33000E+2 1.79538E+15
8.34000E+2 1.79398E+15
8.35000E+2 1.78996E+15
8.36000E+2 1.78328E+15
8.37000E+2 1.77394E+15
8.38000E+2 1.76201E+15
8.39000E+2 1.74754E+15
8.40000E+2 1.73053E+15
8.41000E+2 1.71103E+15
8.42000E+2 1.68909E+15
8.43000E+2 1.66477E+15
8.44000E+2 1.63815E+15
8.45000E+2 1.60926E+15
8.46000E+2 1.57815E+15
8.47000E+2 1.54503E+15
8.48000E+2 1.51043E+15
8.49000E+2 1.47508E+15
8.50000E+2 1.43971E+15
8.51000E+2 1.40502E+15
8.52000E+2 1.37174E+15
8.53000E+2 1.34026E+15
8.54000E+2 1.31041E+15
8.55000E+2 1.28199E+15
8.56000E+2 1.25478E+15
8.57000E+2 1.22857E+15
8.58000E+2 1.20317E+15
8.59000E+2 1.17850E+15
8.60000E+2 1.15459E+15
8.61000E+2 1.13147E+15
8.62000E+2 1.10918E+15
8.63000E+2 1.08776E+15
8.64000E+2 1.06725E+15
8.65000E+2 1.04780E+15
8.66000E+2 1.02959E+15
8.67000E+2 1.01283E+15
8.68000E+2 9.97695E+14
8.69000E+2 9.84380E+14
8.70000E+2 9.73090E+14
8.71000E+2 9.64026E+14
8.72000E+2 9.57396E+14
8.73000E+2 9.53438E+14
8.74000E+2 9.52357E+14
8.75000E+2 9.54357E+14
8.76000E+2 9.59681E+14
8.77000E+2 9.68588E+14
8.78000E+2 9.81348E+14
8.79000E+2 9.98245E+14
8.80000E+2 1.01957E+15
8.81000E+2 1.04561E+15
8.82000E+2 1.07662E+15
8.83000E+2 1.11270E+15
8.84000E+2 1.15385E+15
8.85000E+2 1.20008E+15
8.86000E+2 1.25141E+15
8.87000E+2 1.30784E+15
8.88000E+2 1.36934E+15
8.89000E+2 1.43552E+15
8.90000E+2 1.50561E+15
8.91000E+2 1.57881E+15
8.92000E+2 1.65436E+15
8.93000E+2 1.73146E+15
8.94000E+2 1.80932E+15
8.95000E+2 1.88732E+15
8.96000E+2 1.96526E+15
8.97000E+2 2.04288E+15
8.98000E+2 2.12003E+15
8.99000E+2 2.19648E+15
9.00000E+2 2.27206E+15
9.01000E+2 2.34660E+15
9.02000E+2 2.42036E+15
9.03000E+2 2.49377E+15
9.04000E+2 2.56727E+15
9.05000E+2 2.64130E+15
9.06000E+2 2.71624E+15
9.07000E+2 2.79258E+15
9.08000E+2 2.87040E+15
9.09000E+2 2.94928E+15
9.10000E+2 3.02862E+15
9.11000E+2 3.10792E+15
9.12000E+2 3.18669E+15
9.13000E+2 3.26436E+15
9.14000E+2 3.34042E+15
9.15000E+2 3.41456E+15
9.16000E+2 3.48665E+15
9.17000E+2 3.55655E+15
9.18000E+2 3.62407E+15
9.19000E+2 3.68911E+15
9.20000E+2 3.75147E+15
9.21000E+2 3.81103E+15
9.22000E+2 3.86800E+15
9.23000E+2 3.92260E+15
9.24000E+2 3.97511E+15
9.25000E+2 4.02576E+15
9.26000E+2 4.07488E+15
9.27000E+2 4.12267E+15
9.28000E+2 4.16931E+15
9.29000E+2 4.21457E+15
9.30000E+2 4.25810E+15
9.31000E+2 4.29963E+15
9.32000E+2 4.33889E+15
9.33000E+2 4.37554E+15
9.34000E+2 4.40928E+15
9.35000E+2 4.43984E+15
9.36000E+2 4.46733E+15
9.37000E+2 4.49183E+15
9.38000E+2 4.51350E+15
9.39000E+2 4.53238E+15
9.40000E+2 4.54862E+15
9.41000E+2 4.56234E+15
9.42000E+2 4.57367E+15
9.43000E+2 4.58266E+15
9.44000E+2 4.58935E+15
9.45000E+2 4.59377E+15
9.46000E+2 4.59603E+15
9.47000E+2 4.59615E+15
9.48000E+2 4.59419E+15
9.49000E+2 4.59019E+15
9.50000E+2 4.58447E+15
9.51000E+2 4.57735E+15
9.52000E+2 4.56917E+15
9.53000E+2 4.56030E+15
9.54000E+2 4.55113E+15
9.55000E+2 4.54202E+15
9.56000E+2 4.53329E+15
9.57000E+2 4.52508E+15
9.58000E+2 4.51733E+15
9.59000E+2 4.50999E+15
9.60000E+2 4.50288E+15
9.61000E+2 4.49589E+15
9.62000E+2 4.48895E+15
9.63000E+2 4.48198E+15
9.64000E+2 4.47482E+15
9.65000E+2 4.46759E+15
9.66000E+2 4.46042E+15
9.67000E+2 4.45347E+15
9.68000E+2 4.44686E+15
9.69000E+2 4.44072E+15
9.70000E+2 4.43514E+15
9.71000E+2 4.43027E+15
9.72000E+2 4.42620E+15
9.73000E+2 4.42283E+15
9.74000E+2 4.42001E+15
9.75000E+2 4.41766E+15
9.76000E+2 4.41571E+15
9.77000E+2 4.41408E+15
9.78000E+2 4.41262E+15
9.79000E+2 4.41123E+15
9.80000E+2 4.41006E+15
9.81000E+2 4.40919E+15
9.82000E+2 4.40882E+15
9.83000E+2 4.40912E+15
9.84000E+2 4.41028E+15
9.85000E+2 4.41243E+15
9.86000E+2 4.41580E+15
9.87000E+2 4.42051E+15
9.88000E+2 4.42659E+15
9.89000E+2 4.43407E+15
9.90000E+2 4.44289E+15
9.91000E+2 4.45311E+15
9.92000E+2 4.46466E+15
9.93000E+2 4.47754E+15
9.94000E+2 4.49177E+15
9.95000E+2 4.50737E+15
9.96000E+2 4.52438E+15
9.97000E+2 4.54304E+15
9.98000E+2 4.56348E+15
9.99000E+2 4.58589E+15
1.00000E+3 4.61048E+15
1.00100E+3 4.63740E+15
1.00200E+3 4.66673E+15
1.00300E+3 4.69872E+15
1.00400E+3 4.73332E+15
1.00500E+3 4.77024E+15
1.00600E+3 4.80926E+15
1.00700E+3 4.85022E+15
1.00800E+3 4.89285E+15
1.00900E+3 4.93697E+15
1.01000E+3 4.98240E+15
1.01100E+3 5.02890E+15
1.01200E+3 5.07657E+15
1.01300E+3 5.12580E+15
1.01400E+3 5.17701E+15
1.01500E+3 5.23072E+15
1.01600E+3 5.28733E+15
1.01700E+3 5.34726E+15
1.01800E+3 5.41097E+15
1.01900E+3 5.47888E+15
1.02000E+3 5.55114E+15
1.02100E+3 5.62686E+15
1.02200E+3 5.70503E+15
1.02300E+3 5.78468E+15
1.02400E+3 5.86467E+15
1.02500E+3 5.94404E+15
1.02600E+3 6.02168E+15
1.02700E+3 6.09661E+15
1.02800E+3 6.16785E+15
1.02900E+3 6.23561E+15
1.03000E+3 6.30098E+15
1.03100E+3 6.36520E+15
1.03200E+3 6.42952E+15
1.03300E+3 6.49516E+15
1.03400E+3 6.56329E+15
1.03500E+3 6.63510E+15
1.03600E+3 6.71188E+15
1.03700E+3 6.79453E+15
1.03800E+3 6.88250E+15
1.03900E+3 6.97461E+15
1.04000E+3 7.06974E+15
1.04100E+3 7.16678E+15
1.04200E+3 7.26464E+15
1.04300E+3 7.36216E+15
1.04400E+3 7.45829E+15
1.04500E+3 7.55189E+15
1.04600E+3 7.64214E+15
1.04700E+3 7.72941E+15
1.04800E+3 7.81434E+15
1.04900E+3 7.89744E+15
1.05000E+3 7.97925E+15
1.05100E+3 8.06040E+15
1.05200E+3 8.14136E+15
1.05300E+3 8.22267E+15
1.05400E+3 8.30498E+15
1.05500E+3 8.38861E+15
1.05600E+3 8.47300E+15
1.05700E+3 8.55741E+15
1.05800E+3 8.64137E+15
1.05900E+3 8.72426E+15
1.06000E+3 8.80542E+15
1.06100E+3 8.88427E+15
1.06200E+3 8.96019E+15
1.06300E+3 9.03250E+15
1.06400E+3 9.10083E+15
1.06500E+3 9.16540E+15
1.06600E+3 9.22655E+15
1.06700E+3 9.28475E+15
1.06800E+3 9.34032E+15
1.06900E+3 9.39355E+15
1.07000E+3 9.44498E+15
1.07100E+3 9.49498E+15
1.07200E+3 9.54375E+15
1.07300E+3 9.59177E+15
1.07400E+3 9.63903E+15
1.07500E+3 9.68533E+15
1.07600E+3 9.73078E+15
1.07700E+3 9.77520E+15
1.07800E+3 9.81832E+15
1.07900E+3 9.86018E+15
1.08000E+3 9.90065E+15
1.08100E+3 9.93969E+15
1.08200E+3 9.97713E+15
1.08300E+3 1.00130E+16
1.08400E+3 1.00475E+16
1.08500E+3 1.00805E+16
1.08600E+3 1.01123E+16
1.08700E+3 1.01430E+16
1.08800E+3 1.01728E+16
1.08900E+3 1.02017E+16
1.09000E+3 1.02298E+16
1.09100E+3 1.02574E+16
1.09200E+3 1.02844E+16
1.09300E+3 1.03109E+16
1.09400E+3 1.03367E+16
1.09500E+3 1.03616E+16
1.09600E+3 1.03855E+16
1.09700E+3 1.04084E+16
1.09800E+3 1.04300E+16
1.09900E+3 1.04503E+16
1.10000E+3 1.04691E+16
1.10100E+3 1.04862E+16
1.10200E+3 1.05016E+16
1.10300E+3 1.05154E+16
1.10400E+3 1.05276E+16
1.10500E+3 1.05382E+16
1.10600E+3 1.05473E+16
1.10700E+3 1.05550E+16
1.10800E+3 1.05612E+16
1.10900E+3 1.05662E+16
1.11000E+3 1.05699E+16
1.11100E+3 1.05725E+16
1.11200E+3 1.05738E+16
1.11300E+3 1.05737E+16
1.11400E+3 1.05721E+16
1.11500E+3 1.05688E+16
