Lambda ArbUnit
4.64000E+2 3.12405E+14
4.65000E+2 3.14632E+14
4.66000E+2 3.30747E+14
4.67000E+2 3.30018E+14
4.68000E+2 3.37284E+14
4.69000E+2 3.44560E+14
4.70000E+2 3.52133E+14
4.71000E+2 3.59156E+14
4.72000E+2 3.67256E+14
4.73000E+2 3.74904E+14
4.74000E+2 3.83494E+14
4.75000E+2 3.91262E+14
4.76000E+2 3.97954E+14
4.77000E+2 4.08397E+14
4.78000E+2 4.16806E+14
4.79000E+2 4.24726E+14
4.80000E+2 4.32425E+14
4.81000E+2 4.37462E+14
4.82000E+2 4.41300E+14
4.83000E+2 4.46762E+14
4.84000E+2 4.49933E+14
4.85000E+2 4.56286E+14
4.86000E+2 4.61779E+14
4.87000E+2 4.70973E+14
4.88000E+2 4.75310E+14
4.89000E+2 4.82292E+14
4.90000E+2 4.91789E+14
4.91000E+2 5.01479E+14
4.92000E+2 5.10610E+14
4.93000E+2 5.25986E+14
4.94000E+2 5.38406E+14
4.95000E+2 5.50840E+14
4.96000E+2 5.67739E+14
4.97000E+2 5.85156E+14
4.98000E+2 6.00827E+14
4.99000E+2 6.16521E+14
5.00000E+2 6.33938E+14
5.01000E+2 6.48760E+14
5.02000E+2 6.59323E+14
5.03000E+2 6.69132E+14
5.04000E+2 6.81243E+14
5.05000E+2 6.94218E+14
5.06000E+2 7.08117E+14
5.07000E+2 7.24643E+14
5.08000E+2 7.41871E+14
5.09000E+2 7.57075E+14
5.10000E+2 7.72367E+14
5.11000E+2 7.86581E+14
5.12000E+2 7.98387E+14
5.13000E+2 8.09440E+14
5.14000E+2 8.22565E+14
5.15000E+2 8.38250E+14
5.16000E+2 8.53683E+14
5.17000E+2 8.66493E+14
5.18000E+2 8.78299E+14
5.19000E+2 8.91892E+14
5.20000E+2 9.06363E+14
5.21000E+2 9.18708E+14
5.22000E+2 9.32938E+14
5.23000E+2 9.47403E+14
5.24000E+2 9.61355E+14
5.25000E+2 9.76089E+14
5.26000E+2 9.90411E+14
5.27000E+2 1.00507E+15
5.28000E+2 1.01986E+15
5.29000E+2 1.03449E+15
5.30000E+2 1.05038E+15
5.31000E+2 1.06738E+15
5.32000E+2 1.08432E+15
5.33000E+2 1.10039E+15
5.34000E+2 1.11609E+15
5.35000E+2 1.13146E+15
5.36000E+2 1.14636E+15
5.37000E+2 1.16033E+15
5.38000E+2 1.17171E+15
5.39000E+2 1.18186E+15
5.40000E+2 1.19214E+15
5.41000E+2 1.20118E+15
5.42000E+2 1.21180E+15
5.43000E+2 1.22433E+15
5.44000E+2 1.23514E+15
5.45000E+2 1.24781E+15
5.46000E+2 1.26365E+15
5.47000E+2 1.27965E+15
5.48000E+2 1.29515E+15
5.49000E+2 1.30970E+15
5.50000E+2 1.32338E+15
5.51000E+2 1.34000E+15
5.52000E+2 1.35987E+15
5.53000E+2 1.37935E+15
5.54000E+2 1.39877E+15
5.55000E+2 1.41842E+15
5.56000E+2 1.43734E+15
5.57000E+2 1.45866E+15
5.58000E+2 1.48336E+15
5.59000E+2 1.50549E+15
5.60000E+2 1.52686E+15
5.61000E+2 1.55222E+15
5.62000E+2 1.57731E+15
5.63000E+2 1.59994E+15
5.64000E+2 1.62233E+15
5.65000E+2 1.64366E+15
5.66000E+2 1.66174E+15
5.67000E+2 1.67459E+15
5.68000E+2 1.68368E+15
5.69000E+2 1.69346E+15
5.70000E+2 1.70560E+15
5.71000E+2 1.72002E+15
5.72000E+2 1.73561E+15
5.73000E+2 1.75177E+15
5.74000E+2 1.76882E+15
5.75000E+2 1.78574E+15
5.76000E+2 1.80087E+15
5.77000E+2 1.81424E+15
5.78000E+2 1.82649E+15
5.79000E+2 1.83796E+15
5.80000E+2 1.84876E+15
5.81000E+2 1.85868E+15
5.82000E+2 1.86876E+15
5.83000E+2 1.88090E+15
5.84000E+2 1.89511E+15
5.85000E+2 1.91047E+15
5.86000E+2 1.92601E+15
5.87000E+2 1.94140E+15
5.88000E+2 1.95813E+15
5.89000E+2 1.97716E+15
5.90000E+2 1.99743E+15
5.91000E+2 2.01767E+15
5.92000E+2 2.03698E+15
5.93000E+2 2.05510E+15
5.94000E+2 2.07271E+15
5.95000E+2 2.09045E+15
5.96000E+2 2.10887E+15
5.97000E+2 2.12831E+15
5.98000E+2 2.14885E+15
5.99000E+2 2.16957E+15
6.00000E+2 2.18881E+15
6.01000E+2 2.20666E+15
6.02000E+2 2.22461E+15
6.03000E+2 2.24273E+15
6.04000E+2 2.25978E+15
6.05000E+2 2.27627E+15
6.06000E+2 2.29444E+15
6.07000E+2 2.31396E+15
6.08000E+2 2.33152E+15
6.09000E+2 2.34690E+15
6.10000E+2 2.36441E+15
6.11000E+2 2.38565E+15
6.12000E+2 2.40675E+15
6.13000E+2 2.42521E+15
6.14000E+2 2.44353E+15
6.15000E+2 2.46414E+15
6.16000E+2 2.48556E+15
6.17000E+2 2.50566E+15
6.18000E+2 2.52400E+15
6.19000E+2 2.54100E+15
6.20000E+2 2.55699E+15
6.21000E+2 2.57229E+15
6.22000E+2 2.58774E+15
6.23000E+2 2.60475E+15
6.24000E+2 2.62339E+15
6.25000E+2 2.64048E+15
6.26000E+2 2.65349E+15
6.27000E+2 2.66529E+15
6.28000E+2 2.68031E+15
6.29000E+2 2.69830E+15
6.30000E+2 2.71540E+15
6.31000E+2 2.72956E+15
6.32000E+2 2.74189E+15
6.33000E+2 2.75381E+15
6.34000E+2 2.76698E+15
6.35000E+2 2.78291E+15
6.36000E+2 2.80122E+15
6.37000E+2 2.81974E+15
6.38000E+2 2.83735E+15
6.39000E+2 2.85558E+15
6.40000E+2 2.87611E+15
6.41000E+2 2.89872E+15
6.42000E+2 2.92210E+15
6.43000E+2 2.94533E+15
6.44000E+2 2.96864E+15
6.45000E+2 2.99228E+15
6.46000E+2 3.01639E+15
6.47000E+2 3.04094E+15
6.48000E+2 3.06618E+15
6.49000E+2 3.09262E+15
6.50000E+2 3.12077E+15
6.51000E+2 3.14956E+15
6.52000E+2 3.17694E+15
6.53000E+2 3.20184E+15
6.54000E+2 3.22588E+15
6.55000E+2 3.25105E+15
6.56000E+2 3.27797E+15
6.57000E+2 3.30583E+15
6.58000E+2 3.33371E+15
6.59000E+2 3.36126E+15
6.60000E+2 3.38835E+15
6.61000E+2 3.41521E+15
6.62000E+2 3.44245E+15
6.63000E+2 3.47079E+15
6.64000E+2 3.50003E+15
6.65000E+2 3.52897E+15
6.66000E+2 3.55639E+15
6.67000E+2 3.58260E+15
6.68000E+2 3.60884E+15
6.69000E+2 3.63591E+15
6.70000E+2 3.66274E+15
6.71000E+2 3.68753E+15
6.72000E+2 3.70909E+15
6.73000E+2 3.72834E+15
6.74000E+2 3.74680E+15
6.75000E+2 3.76540E+15
6.76000E+2 3.78360E+15
6.77000E+2 3.80088E+15
6.78000E+2 3.81687E+15
6.79000E+2 3.83136E+15
6.80000E+2 3.84440E+15
6.81000E+2 3.85557E+15
6.82000E+2 3.86383E+15
6.83000E+2 3.86820E+15
6.84000E+2 3.86909E+15
6.85000E+2 3.86873E+15
6.86000E+2 3.86974E+15
6.87000E+2 3.87274E+15
6.88000E+2 3.87571E+15
6.89000E+2 3.87655E+15
6.90000E+2 3.87410E+15
6.91000E+2 3.86868E+15
6.92000E+2 3.86080E+15
6.93000E+2 3.85108E+15
6.94000E+2 3.84021E+15
6.95000E+2 3.82892E+15
6.96000E+2 3.81756E+15
6.97000E+2 3.80540E+15
6.98000E+2 3.79154E+15
6.99000E+2 3.77520E+15
7.00000E+2 3.75646E+15
7.01000E+2 3.73560E+15
7.02000E+2 3.71298E+15
7.03000E+2 3.68847E+15
7.04000E+2 3.66159E+15
7.05000E+2 3.63194E+15
7.06000E+2 3.59992E+15
7.07000E+2 3.56690E+15
7.08000E+2 3.53430E+15
7.09000E+2 3.50293E+15
7.10000E+2 3.47136E+15
7.11000E+2 3.43777E+15
7.12000E+2 3.40056E+15
7.13000E+2 3.36055E+15
7.14000E+2 3.31967E+15
7.15000E+2 3.27993E+15
7.16000E+2 3.24223E+15
7.17000E+2 3.20556E+15
7.18000E+2 3.16866E+15
7.19000E+2 3.13055E+15
7.20000E+2 3.09171E+15
7.21000E+2 3.05321E+15
7.22000E+2 3.01611E+15
7.23000E+2 2.98061E+15
7.24000E+2 2.94555E+15
7.25000E+2 2.90962E+15
7.26000E+2 2.87176E+15
7.27000E+2 2.83243E+15
7.28000E+2 2.79275E+15
7.29000E+2 2.75381E+15
7.30000E+2 2.71620E+15
7.31000E+2 2.67924E+15
7.32000E+2 2.64200E+15
7.33000E+2 2.60364E+15
7.34000E+2 2.56414E+15
7.35000E+2 2.52443E+15
7.36000E+2 2.48546E+15
7.37000E+2 2.44796E+15
7.38000E+2 2.41245E+15
7.39000E+2 2.37914E+15
7.40000E+2 2.34821E+15
7.41000E+2 2.31980E+15
7.42000E+2 2.29376E+15
7.43000E+2 2.26981E+15
7.44000E+2 2.24774E+15
7.45000E+2 2.22742E+15
7.46000E+2 2.20911E+15
7.47000E+2 2.19304E+15
7.48000E+2 2.17950E+15
7.49000E+2 2.16850E+15
7.50000E+2 2.15978E+15
7.51000E+2 2.15301E+15
7.52000E+2 2.14788E+15
7.53000E+2 2.14409E+15
7.54000E+2 2.14143E+15
7.55000E+2 2.13967E+15
7.56000E+2 2.13862E+15
7.57000E+2 2.13821E+15
7.58000E+2 2.13865E+15
7.59000E+2 2.14015E+15
7.60000E+2 2.14291E+15
7.61000E+2 2.14692E+15
7.62000E+2 2.15200E+15
7.63000E+2 2.15789E+15
7.64000E+2 2.16439E+15
7.65000E+2 2.17109E+15
7.66000E+2 2.17728E+15
7.67000E+2 2.18228E+15
7.68000E+2 2.18535E+15
7.69000E+2 2.18608E+15
7.70000E+2 2.18518E+15
7.71000E+2 2.18356E+15
7.72000E+2 2.18212E+15
7.73000E+2 2.18156E+15
7.74000E+2 2.18155E+15
7.75000E+2 2.18133E+15
7.76000E+2 2.18011E+15
7.77000E+2 2.17710E+15
7.78000E+2 2.17224E+15
7.79000E+2 2.16597E+15
7.80000E+2 2.15866E+15
7.81000E+2 2.15076E+15
7.82000E+2 2.14251E+15
7.83000E+2 2.13378E+15
7.84000E+2 2.12436E+15
7.85000E+2 2.11407E+15
7.86000E+2 2.10267E+15
7.87000E+2 2.09019E+15
7.88000E+2 2.07676E+15
7.89000E+2 2.06245E+15
7.90000E+2 2.04736E+15
7.91000E+2 2.03159E+15
7.92000E+2 2.01512E+15
7.93000E+2 1.99790E+15
7.94000E+2 1.97996E+15
7.95000E+2 1.96126E+15
7.96000E+2 1.94181E+15
7.97000E+2 1.92160E+15
7.98000E+2 1.90059E+15
7.99000E+2 1.87883E+15
8.00000E+2 1.85633E+15
8.01000E+2 1.83321E+15
8.02000E+2 1.80971E+15
8.03000E+2 1.78598E+15
8.04000E+2 1.76225E+15
8.05000E+2 1.73858E+15
8.06000E+2 1.71499E+15
8.07000E+2 1.69150E+15
8.08000E+2 1.66811E+15
8.09000E+2 1.64480E+15
8.10000E+2 1.62155E+15
8.11000E+2 1.59837E+15
8.12000E+2 1.57524E+15
8.13000E+2 1.55215E+15
8.14000E+2 1.52909E+15
8.15000E+2 1.50626E+15
8.16000E+2 1.48401E+15
8.17000E+2 1.46267E+15
8.18000E+2 1.44255E+15
8.19000E+2 1.42396E+15
8.20000E+2 1.40680E+15
8.21000E+2 1.39073E+15
8.22000E+2 1.37545E+15
8.23000E+2 1.36066E+15
8.24000E+2 1.34608E+15
8.25000E+2 1.33188E+15
8.26000E+2 1.31848E+15
8.27000E+2 1.30626E+15
8.28000E+2 1.29563E+15
8.29000E+2 1.28698E+15
8.30000E+2 1.28048E+15
8.31000E+2 1.27619E+15
8.32000E+2 1.27417E+15
8.33000E+2 1.27443E+15
8.34000E+2 1.27704E+15
8.35000E+2 1.28208E+15
8.36000E+2 1.28963E+15
8.37000E+2 1.29980E+15
8.38000E+2 1.31271E+15
8.39000E+2 1.32845E+15
8.40000E+2 1.34711E+15
8.41000E+2 1.36869E+15
8.42000E+2 1.39319E+15
8.43000E+2 1.42063E+15
8.44000E+2 1.45100E+15
8.45000E+2 1.48430E+15
8.46000E+2 1.52053E+15
8.47000E+2 1.55971E+15
8.48000E+2 1.60180E+15
8.49000E+2 1.64681E+15
8.50000E+2 1.69474E+15
8.51000E+2 1.74551E+15
8.52000E+2 1.79899E+15
8.53000E+2 1.85503E+15
8.54000E+2 1.91349E+15
8.55000E+2 1.97422E+15
8.56000E+2 2.03697E+15
8.57000E+2 2.10108E+15
8.58000E+2 2.16569E+15
8.59000E+2 2.23002E+15
8.60000E+2 2.29316E+15
8.61000E+2 2.35430E+15
8.62000E+2 2.41309E+15
8.63000E+2 2.46974E+15
8.64000E+2 2.52458E+15
8.65000E+2 2.57791E+15
8.66000E+2 2.63007E+15
8.67000E+2 2.68139E+15
8.68000E+2 2.73218E+15
8.69000E+2 2.78281E+15
8.70000E+2 2.83367E+15
8.71000E+2 2.88514E+15
8.72000E+2 2.93753E+15
8.73000E+2 2.99113E+15
8.74000E+2 3.04537E+15
8.75000E+2 3.09926E+15
8.76000E+2 3.15197E+15
8.77000E+2 3.20254E+15
8.78000E+2 3.25005E+15
8.79000E+2 3.29387E+15
8.80000E+2 3.33451E+15
8.81000E+2 3.37292E+15
8.82000E+2 3.40985E+15
8.83000E+2 3.44619E+15
8.84000E+2 3.48277E+15
8.85000E+2 3.52023E+15
8.86000E+2 3.55810E+15
8.87000E+2 3.59572E+15
8.88000E+2 3.63231E+15
8.89000E+2 3.66725E+15
8.90000E+2 3.69985E+15
8.91000E+2 3.72950E+15
8.92000E+2 3.75637E+15
8.93000E+2 3.78077E+15
8.94000E+2 3.80297E+15
8.95000E+2 3.82336E+15
8.96000E+2 3.84225E+15
8.97000E+2 3.85994E+15
8.98000E+2 3.87634E+15
8.99000E+2 3.89128E+15
9.00000E+2 3.90453E+15
9.01000E+2 3.91587E+15
9.02000E+2 3.92510E+15
9.03000E+2 3.93203E+15
9.04000E+2 3.93669E+15
9.05000E+2 3.93927E+15
9.06000E+2 3.94007E+15
9.07000E+2 3.93928E+15
9.08000E+2 3.93721E+15
9.09000E+2 3.93406E+15
9.10000E+2 3.92999E+15
9.11000E+2 3.92473E+15
9.12000E+2 3.91810E+15
9.13000E+2 3.90978E+15
9.14000E+2 3.89954E+15
9.15000E+2 3.88707E+15
9.16000E+2 3.87217E+15
9.17000E+2 3.85482E+15
9.18000E+2 3.83513E+15
9.19000E+2 3.81326E+15
9.20000E+2 3.78931E+15
9.21000E+2 3.76342E+15
9.22000E+2 3.73573E+15
9.23000E+2 3.70636E+15
9.24000E+2 3.67558E+15
9.25000E+2 3.64362E+15
9.26000E+2 3.61074E+15
9.27000E+2 3.57716E+15
9.28000E+2 3.54314E+15
9.29000E+2 3.50892E+15
9.30000E+2 3.47460E+15
9.31000E+2 3.44008E+15
9.32000E+2 3.40537E+15
9.33000E+2 3.37041E+15
9.34000E+2 3.33505E+15
9.35000E+2 3.29923E+15
9.36000E+2 3.26295E+15
9.37000E+2 3.22621E+15
9.38000E+2 3.18908E+15
9.39000E+2 3.15165E+15
9.40000E+2 3.11404E+15
9.41000E+2 3.07631E+15
9.42000E+2 3.03860E+15
9.43000E+2 3.00104E+15
9.44000E+2 2.96373E+15
9.45000E+2 2.92694E+15
9.46000E+2 2.89091E+15
9.47000E+2 2.85587E+15
9.48000E+2 2.82200E+15
9.49000E+2 2.78957E+15
9.50000E+2 2.75880E+15
9.51000E+2 2.72965E+15
9.52000E+2 2.70210E+15
9.53000E+2 2.67598E+15
9.54000E+2 2.65121E+15
9.55000E+2 2.62770E+15
9.56000E+2 2.60537E+15
9.57000E+2 2.58402E+15
9.58000E+2 2.56396E+15
9.59000E+2 2.54561E+15
9.60000E+2 2.52935E+15
9.61000E+2 2.51568E+15
9.62000E+2 2.50511E+15
9.63000E+2 2.49799E+15
9.64000E+2 2.49483E+15
9.65000E+2 2.49587E+15
9.66000E+2 2.50105E+15
9.67000E+2 2.51025E+15
9.68000E+2 2.52339E+15
9.69000E+2 2.54033E+15
9.70000E+2 2.56099E+15
9.71000E+2 2.58523E+15
9.72000E+2 2.61298E+15
9.73000E+2 2.64417E+15
9.74000E+2 2.67868E+15
9.75000E+2 2.71649E+15
9.76000E+2 2.75750E+15
9.77000E+2 2.80167E+15
9.78000E+2 2.84893E+15
9.79000E+2 2.89915E+15
9.80000E+2 2.95244E+15
9.81000E+2 3.00882E+15
9.82000E+2 3.06843E+15
9.83000E+2 3.13142E+15
9.84000E+2 3.19784E+15
9.85000E+2 3.26782E+15
9.86000E+2 3.34149E+15
9.87000E+2 3.41894E+15
9.88000E+2 3.50002E+15
9.89000E+2 3.58455E+15
9.90000E+2 3.67235E+15
9.91000E+2 3.76321E+15
9.92000E+2 3.85691E+15
9.93000E+2 3.95329E+15
9.94000E+2 4.05212E+15
9.95000E+2 4.15326E+15
9.96000E+2 4.25657E+15
9.97000E+2 4.36196E+15
9.98000E+2 4.46934E+15
9.99000E+2 4.57859E+15
1.00000E+3 4.68971E+15
1.00100E+3 4.80253E+15
1.00200E+3 4.91694E+15
1.00300E+3 5.03284E+15
1.00400E+3 5.15028E+15
1.00500E+3 5.26916E+15
1.00600E+3 5.38935E+15
1.00700E+3 5.51086E+15
1.00800E+3 5.63356E+15
1.00900E+3 5.75749E+15
1.01000E+3 5.88255E+15
1.01100E+3 6.00871E+15
1.01200E+3 6.13588E+15
1.01300E+3 6.26393E+15
1.01400E+3 6.39286E+15
1.01500E+3 6.52253E+15
1.01600E+3 6.65298E+15
1.01700E+3 6.78402E+15
1.01800E+3 6.91562E+15
1.01900E+3 7.04773E+15
1.02000E+3 7.18013E+15
1.02100E+3 7.31269E+15
1.02200E+3 7.44523E+15
1.02300E+3 7.57764E+15
1.02400E+3 7.70970E+15
1.02500E+3 7.84126E+15
1.02600E+3 7.97216E+15
1.02700E+3 8.10223E+15
1.02800E+3 8.23122E+15
1.02900E+3 8.35880E+15
1.03000E+3 8.48459E+15
1.03100E+3 8.60824E+15
1.03200E+3 8.72955E+15
1.03300E+3 8.84817E+15
1.03400E+3 8.96375E+15
1.03500E+3 9.07592E+15
1.03600E+3 9.18491E+15
1.03700E+3 9.29146E+15
1.03800E+3 9.39619E+15
1.03900E+3 9.49973E+15
1.04000E+3 9.60275E+15
1.04100E+3 9.70593E+15
1.04200E+3 9.80993E+15
1.04300E+3 9.91546E+15
1.04400E+3 1.00230E+16
1.04500E+3 1.01322E+16
1.04600E+3 1.02422E+16
1.04700E+3 1.03525E+16
1.04800E+3 1.04624E+16
1.04900E+3 1.05713E+16
1.05000E+3 1.06786E+16
1.05100E+3 1.07836E+16
1.05200E+3 1.08856E+16
1.05300E+3 1.09841E+16
1.05400E+3 1.10796E+16
1.05500E+3 1.11721E+16
1.05600E+3 1.12618E+16
1.05700E+3 1.13488E+16
1.05800E+3 1.14334E+16
1.05900E+3 1.15157E+16
1.06000E+3 1.15959E+16
1.06100E+3 1.16742E+16
1.06200E+3 1.17505E+16
1.06300E+3 1.18246E+16
1.06400E+3 1.18962E+16
1.06500E+3 1.19650E+16
1.06600E+3 1.20307E+16
1.06700E+3 1.20931E+16
1.06800E+3 1.21521E+16
1.06900E+3 1.22070E+16
1.07000E+3 1.22580E+16
1.07100E+3 1.23050E+16
1.07200E+3 1.23480E+16
1.07300E+3 1.23875E+16
1.07400E+3 1.24236E+16
1.07500E+3 1.24563E+16
1.07600E+3 1.24862E+16
1.07700E+3 1.25133E+16
1.07800E+3 1.25378E+16
1.07900E+3 1.25598E+16
1.08000E+3 1.25797E+16
1.08100E+3 1.25975E+16
1.08200E+3 1.26133E+16
1.08300E+3 1.26271E+16
1.08400E+3 1.26391E+16
1.08500E+3 1.26492E+16
1.08600E+3 1.26576E+16
1.08700E+3 1.26644E+16
1.08800E+3 1.26695E+16
1.08900E+3 1.26732E+16
1.09000E+3 1.26751E+16
1.09100E+3 1.26754E+16
1.09200E+3 1.26739E+16
1.09300E+3 1.26704E+16
1.09400E+3 1.26650E+16
1.09500E+3 1.26574E+16
1.09600E+3 1.26477E+16
1.09700E+3 1.26358E+16
1.09800E+3 1.26215E+16
1.09900E+3 1.26051E+16
1.10000E+3 1.25864E+16
1.10100E+3 1.25656E+16
1.10200E+3 1.25430E+16
1.10300E+3 1.25185E+16
1.10400E+3 1.24922E+16
1.10500E+3 1.24643E+16
1.10600E+3 1.24348E+16
1.10700E+3 1.24038E+16
1.10800E+3 1.23713E+16
1.10900E+3 1.23371E+16
1.11000E+3 1.23012E+16
1.11100E+3 1.22633E+16
1.11200E+3 1.22231E+16
1.11300E+3 1.21807E+16
1.11400E+3 1.21357E+16
1.11500E+3 1.20880E+16
