/ optical filter to use at frontcontact (ZnS and MgF2)	
/ file produced by Samira Khelifi, University of Bechar, Algeria, april 2004
/ lambda[nm]	reflection[%]
308.333	33.96
316.666	34.9
325	36.79
333.333	37.73
341.666	38.67
354.166	38.67
362.5	37.73
370.833	36.79
375	35.37
379.166	33.96
383.333	33.01
383.333	31.13
383.333	30.18
387.5	28.3
391.666	27.35
391.666	25.94
391.666	24.52
391.666	23.58
395.833	21.69
400	20.75
400	18.86
400	17.92
400	16.03
400	15.09
404.166	13.2
408.333	12.26
408.333	10.84
408.333	09.43
412.5	08.01
416.666	06.6
416.666	05.66
420.833	04.24
425	02.83
450	01.88
466.666	02.35
483.333	01.88
495.833	01.88
508.333	01.88
516.666	01.88
533.333	01.88
550	01.88
566.666	02.35
583.333	01.88
604.166	01.41
616.666	01.41
633.333	00.94
641.666	00.94
654.166	00.94
666.666	00.47
683.333	00.47
704.166	00.47
750	00.47
775	00.47
800	00.94
825	00.94
850	00.47
883.333	00.47
900	00.94
908.333	00.94
916.666	01.41
933.333	01.32
941.666	01.69
954.166	01.41
