/absorption data for Si
/from Schinke at el / AIP ADVANCES 5, 067168 (2015)
/lambda[nm]	alfa[m^-1]
250  1.808E+08
260  1.934E+08
270  2.144E+08
280  2.337E+08
290  2.307E+08
300  1.801E+08
310  1.472E+08
320  1.292E+08
330  1.181E+08
340  1.096E+08
350  1.046E+08
360  1.019E+08
370  7.286E+07
380  3.262E+07
390  1.625E+07
400  1.027E+07
410  7.412E+06
420  5.306E+06
430  4.032E+06
440  3.206E+06
450  2.669E+06
460  2.166E+06
470  1.882E+06
480  1.570E+06
490  1.383E+06
500  1.223E+06
510  1.082E+06
520  9.575E+05
530  8.271E+05
540  6.973E+05
550  6.421E+05
560  5.972E+05
570  5.247E+05
580  4.755E+05
590  4.286E+05
600  3.888E+05
610  3.563E+05
620  3.415E+05
630  3.253E+05
640  2.892E+05
650  2.799E+05
660  2.597E+05
670  2.408E+05
680  2.231E+05
690  2.066E+05
700  1.911E+05
710  1.767E+05
720  1.633E+05
730  1.506E+05
740  1.389E+05
750  1.279E+05
760  1.176E+05
770  1.080E+05
780  9.905E+04
790  9.070E+04
800  8.290E+04
810  7.563E+04
820  6.887E+04
830  6.257E+04
840  5.672E+04
850  5.128E+04
860  4.623E+04
870  4.155E+04
880  3.722E+04
890  3.321E+04
900  2.952E+04
910  2.611E+04
920  2.298E+04
930  1.999E+04
940  1.750E+04
950  1.510E+04
960  1.289E+04
970  1.092E+04
980  9.168E+03
990  7.588E+03
1000  6.174E+03
1010  4.940E+03
1020  3.882E+03
1030  2.941E+03
1040  2.175E+03
1050  1.565E+03
1060  1.099E+03
1070  7.983E+02
1080  6.084E+02
1090  4.596E+02
1100  3.460E+02
1110  2.600E+02
1120  1.919E+02
1130  1.380E+02
1140  9.525E+01
1150  6.229E+01
1160  3.722E+01
1170  1.900E+01
1180  5.931E+00
1190  2.451E+00
1200  1.459E+00
1210  8.417E-01
1220  4.949E-01
1230  2.778E-01
1240  1.454E-01
1250  5.925E-02
1260  2.334E-02
1270  1.261E-02
1280  7.408E-03
1290  4.374E-03
1300  2.638E-03
1310  1.525E-03
1320  8.320E-04
1330  3.981E-04
1340  1.704E-04
1350  9.729E-05
1360  5.826E-05
1370  3.588E-05
1380  2.407E-05
1390  1.575E-05
1400  9.382E-06
1410  5.397E-06
1420  3.805E-06
1430  1.795E-06
1440  1.206E-06
1450  9.469E-07
