/absorption data for Si
/from Schinke at el / AIP ADVANCES 5, 067168 (2015)
/lambda[nm]	alfa[m^-1]
250  1.811E+08
260  1.938E+08
270  2.147E+08
280  2.341E+08
290  2.311E+08
300  1.804E+08
310  1.475E+08
320  1.294E+08
330  1.183E+08
340  1.097E+08
350  1.048E+08
360  1.021E+08
370  7.297E+07
380  3.267E+07
390  1.627E+07
400  1.029E+07
410  7.424E+06
420  5.315E+06
430  4.039E+06
440  3.211E+06
450  2.673E+06
460  2.169E+06
470  1.885E+06
480  1.572E+06
490  1.385E+06
500  1.225E+06
510  1.084E+06
520  9.590E+05
530  8.284E+05
540  6.984E+05
550  6.431E+05
560  5.981E+05
570  5.255E+05
580  4.762E+05
590  4.293E+05
600  3.894E+05
610  3.569E+05
620  3.420E+05
630  3.258E+05
640  2.896E+05
650  2.804E+05
660  2.601E+05
670  2.411E+05
680  2.235E+05
690  2.069E+05
700  1.914E+05
710  1.770E+05
720  1.635E+05
730  1.509E+05
740  1.391E+05
750  1.281E+05
760  1.178E+05
770  1.082E+05
780  9.920E+04
790  9.084E+04
800  8.303E+04
810  7.575E+04
820  6.898E+04
830  6.267E+04
840  5.681E+04
850  5.136E+04
860  4.630E+04
870  4.161E+04
880  3.727E+04
890  3.326E+04
900  2.956E+04
910  2.615E+04
920  2.302E+04
930  2.002E+04
940  1.753E+04
950  1.513E+04
960  1.291E+04
970  1.093E+04
980  9.183E+03
990  7.599E+03
1000  6.184E+03
1010  4.948E+03
1020  3.888E+03
1030  2.945E+03
1040  2.178E+03
1050  1.567E+03
1060  1.100E+03
1070  7.996E+02
1080  6.094E+02
1090  4.603E+02
1100  3.465E+02
1110  2.604E+02
1120  1.922E+02
1130  1.382E+02
1140  9.540E+01
1150  6.239E+01
1160  3.727E+01
1170  1.903E+01
1180  5.940E+00
1190  2.455E+00
1200  1.462E+00
1210  8.431E-01
1220  4.957E-01
1230  2.783E-01
1240  1.457E-01
1250  5.934E-02
1260  2.338E-02
1270  1.263E-02
1280  7.420E-03
1290  4.381E-03
1300  2.642E-03
1310  1.527E-03
1320  8.333E-04
1330  3.987E-04
1340  1.707E-04
1350  9.745E-05
1360  5.836E-05
1370  3.594E-05
1380  2.410E-05
1390  1.577E-05
1400  9.396E-06
1410  5.406E-06
1420  3.811E-06
1430  1.798E-06
1440  1.208E-06
1450  9.484E-07
