/absorption data for Si
/from Schinke at el / AIP ADVANCES 5, 067168 (2015)
/lambda[nm]	alfa[m^-1]
250  1.807E+08
260  1.933E+08
270  2.142E+08
280  2.336E+08
290  2.306E+08
300  1.800E+08
310  1.471E+08
320  1.291E+08
330  1.180E+08
340  1.095E+08
350  1.046E+08
360  1.019E+08
370  7.280E+07
380  3.259E+07
390  1.624E+07
400  1.027E+07
410  7.407E+06
420  5.302E+06
430  4.029E+06
440  3.204E+06
450  2.667E+06
460  2.164E+06
470  1.881E+06
480  1.568E+06
490  1.382E+06
500  1.222E+06
510  1.082E+06
520  9.568E+05
530  8.265E+05
540  6.968E+05
550  6.416E+05
560  5.967E+05
570  5.243E+05
580  4.752E+05
590  4.283E+05
600  3.885E+05
610  3.561E+05
620  3.412E+05
630  3.250E+05
640  2.890E+05
650  2.797E+05
660  2.595E+05
670  2.406E+05
680  2.230E+05
690  2.064E+05
700  1.910E+05
710  1.766E+05
720  1.632E+05
730  1.505E+05
740  1.388E+05
750  1.278E+05
760  1.175E+05
770  1.080E+05
780  9.898E+04
790  9.063E+04
800  8.284E+04
810  7.558E+04
820  6.882E+04
830  6.253E+04
840  5.668E+04
850  5.124E+04
860  4.619E+04
870  4.152E+04
880  3.719E+04
890  3.318E+04
900  2.950E+04
910  2.609E+04
920  2.297E+04
930  1.997E+04
940  1.749E+04
950  1.509E+04
960  1.288E+04
970  1.091E+04
980  9.161E+03
990  7.582E+03
1000  6.170E+03
1010  4.937E+03
1020  3.879E+03
1030  2.939E+03
1040  2.173E+03
1050  1.563E+03
1060  1.098E+03
1070  7.978E+02
1080  6.080E+02
1090  4.592E+02
1100  3.457E+02
1110  2.598E+02
1120  1.918E+02
1130  1.379E+02
1140  9.518E+01
1150  6.225E+01
1160  3.719E+01
1170  1.899E+01
1180  5.926E+00
1190  2.449E+00
1200  1.458E+00
1210  8.411E-01
1220  4.946E-01
1230  2.776E-01
1240  1.453E-01
1250  5.920E-02
1260  2.333E-02
1270  1.260E-02
1280  7.403E-03
1290  4.371E-03
1300  2.636E-03
1310  1.523E-03
1320  8.314E-04
1330  3.978E-04
1340  1.703E-04
1350  9.722E-05
1360  5.822E-05
1370  3.586E-05
1380  2.405E-05
1390  1.573E-05
1400  9.375E-06
1410  5.394E-06
1420  3.802E-06
1430  1.794E-06
1440  1.205E-06
1450  9.462E-07
