/absorption data for Si
/from Schinke at el / AIP ADVANCES 5, 067168 (2015)
/lambda[nm]	alfa[m^-1]
250  1.805E+08
260  1.931E+08
270  2.140E+08
280  2.333E+08
290  2.303E+08
300  1.798E+08
310  1.469E+08
320  1.289E+08
330  1.178E+08
340  1.093E+08
350  1.044E+08
360  1.017E+08
370  7.271E+07
380  3.255E+07
390  1.622E+07
400  1.025E+07
410  7.397E+06
420  5.296E+06
430  4.024E+06
440  3.200E+06
450  2.664E+06
460  2.162E+06
470  1.879E+06
480  1.566E+06
490  1.380E+06
500  1.220E+06
510  1.080E+06
520  9.556E+05
530  8.255E+05
540  6.959E+05
550  6.408E+05
560  5.960E+05
570  5.237E+05
580  4.746E+05
590  4.277E+05
600  3.880E+05
610  3.556E+05
620  3.408E+05
630  3.246E+05
640  2.886E+05
650  2.794E+05
660  2.592E+05
670  2.403E+05
680  2.227E+05
690  2.062E+05
700  1.908E+05
710  1.764E+05
720  1.630E+05
730  1.503E+05
740  1.386E+05
750  1.276E+05
760  1.173E+05
770  1.078E+05
780  9.885E+04
790  9.052E+04
800  8.274E+04
810  7.548E+04
820  6.873E+04
830  6.245E+04
840  5.661E+04
850  5.118E+04
860  4.613E+04
870  4.146E+04
880  3.714E+04
890  3.314E+04
900  2.946E+04
910  2.606E+04
920  2.294E+04
930  1.995E+04
940  1.747E+04
950  1.507E+04
960  1.286E+04
970  1.089E+04
980  9.150E+03
990  7.572E+03
1000  6.162E+03
1010  4.931E+03
1020  3.874E+03
1030  2.935E+03
1040  2.171E+03
1050  1.561E+03
1060  1.096E+03
1070  7.968E+02
1080  6.072E+02
1090  4.586E+02
1100  3.453E+02
1110  2.595E+02
1120  1.916E+02
1130  1.377E+02
1140  9.506E+01
1150  6.217E+01
1160  3.714E+01
1170  1.897E+01
1180  5.919E+00
1190  2.446E+00
1200  1.456E+00
1210  8.401E-01
1220  4.940E-01
1230  2.773E-01
1240  1.451E-01
1250  5.913E-02
1260  2.330E-02
1270  1.258E-02
1280  7.393E-03
1290  4.365E-03
1300  2.633E-03
1310  1.521E-03
1320  8.304E-04
1330  3.973E-04
1340  1.701E-04
1350  9.710E-05
1360  5.815E-05
1370  3.581E-05
1380  2.402E-05
1390  1.571E-05
1400  9.363E-06
1410  5.387E-06
1420  3.797E-06
1430  1.792E-06
1440  1.203E-06
1450  9.450E-07
