/absorption data for Si
/from Schinke at el / AIP ADVANCES 5, 067168 (2015)
/lambda[nm]	alfa[m^-1]
250  1.805E+08
260  1.931E+08
270  2.140E+08
280  2.333E+08
290  2.303E+08
300  1.798E+08
310  1.470E+08
320  1.290E+08
330  1.179E+08
340  1.094E+08
350  1.045E+08
360  1.018E+08
370  7.273E+07
380  3.256E+07
390  1.622E+07
400  1.026E+07
410  7.399E+06
420  5.297E+06
430  4.025E+06
440  3.201E+06
450  2.664E+06
460  2.162E+06
470  1.879E+06
480  1.567E+06
490  1.381E+06
500  1.221E+06
510  1.081E+06
520  9.558E+05
530  8.257E+05
540  6.961E+05
550  6.410E+05
560  5.961E+05
570  5.238E+05
580  4.747E+05
590  4.278E+05
600  3.881E+05
610  3.557E+05
620  3.409E+05
630  3.247E+05
640  2.887E+05
650  2.795E+05
660  2.592E+05
670  2.403E+05
680  2.227E+05
690  2.062E+05
700  1.908E+05
710  1.764E+05
720  1.630E+05
730  1.504E+05
740  1.387E+05
750  1.277E+05
760  1.174E+05
770  1.079E+05
780  9.887E+04
790  9.054E+04
800  8.276E+04
810  7.550E+04
820  6.875E+04
830  6.246E+04
840  5.662E+04
850  5.119E+04
860  4.615E+04
870  4.147E+04
880  3.715E+04
890  3.315E+04
900  2.947E+04
910  2.606E+04
920  2.294E+04
930  1.995E+04
940  1.747E+04
950  1.508E+04
960  1.287E+04
970  1.090E+04
980  9.152E+03
990  7.574E+03
1000  6.163E+03
1010  4.932E+03
1020  3.875E+03
1030  2.936E+03
1040  2.171E+03
1050  1.562E+03
1060  1.097E+03
1070  7.969E+02
1080  6.073E+02
1090  4.588E+02
1100  3.454E+02
1110  2.595E+02
1120  1.916E+02
1130  1.378E+02
1140  9.508E+01
1150  6.218E+01
1160  3.715E+01
1170  1.897E+01
1180  5.920E+00
1190  2.446E+00
1200  1.457E+00
1210  8.403E-01
1220  4.941E-01
1230  2.774E-01
1240  1.452E-01
1250  5.914E-02
1260  2.330E-02
1270  1.259E-02
1280  7.395E-03
1290  4.366E-03
1300  2.633E-03
1310  1.522E-03
1320  8.306E-04
1330  3.974E-04
1340  1.701E-04
1350  9.712E-05
1360  5.816E-05
1370  3.582E-05
1380  2.402E-05
1390  1.572E-05
1400  9.365E-06
1410  5.388E-06
1420  3.798E-06
1430  1.792E-06
1440  1.204E-06
1450  9.452E-07
