> SCAPS absorption file for amorphous silicon			
> source of data yet to be specified (MB, 7-11-2008)			
> lambda (nm)	alpha (1/m)		
200	1.1028E+08		
210	1.1028E+08		
220	1.1028E+08		
230	1.1028E+08		
240	1.1028E+08		
250	1.1028E+08		
260	1.1028E+08		
270	1.1028E+08		
280	1.1028E+08		
290	1.1028E+08		
300	1.1028E+08		
310	1.1028E+08		
320	1.1028E+08		
330	1.1028E+08		
340	1.1028E+08		
350	1.1028E+08		
360	9.7703E+07		
370	8.6534E+07		
380	7.6604E+07		
390	6.7767E+07		
400	5.9900E+07		
410	5.2892E+07		
420	4.6648E+07		
430	4.1084E+07		
440	3.6127E+07		
450	3.1711E+07		
460	2.7780E+07		
470	2.4281E+07		
480	2.1170E+07		
490	1.8407E+07		
500	1.5956E+07		
510	1.3784E+07		
520	1.1863E+07		
530	1.0167E+07		
540	8.6741E+06		
550	7.3624E+06		
560	6.2135E+06		
570	5.2107E+06		
580	4.3387E+06		
590	3.5839E+06		
600	2.9336E+06		
610	2.3768E+06		
620	1.9031E+06		
630	1.5033E+06		
640	1.1688E+06		
650	8.9200E+05		
660	6.6580E+05		
670	4.8377E+05		
680	3.4003E+05		
690	2.2917E+05		
700	1.4624E+05		
710	8.8587E+04		
720	5.2889E+04		
730	3.2032E+04		
740	1.9670E+04		
750	1.2242E+04		
760	7.7198E+03		
770	4.9310E+03		
780	3.1902E+03		
790	2.0907E+03		
800	1.3882E+03		
810	9.3442E+02		
820	6.3814E+02		
830	4.4265E+02		
840	3.1234E+02		
850	2.2460E+02		
860	1.6493E+02		
870	1.2394E+02		
880	9.5495E+01		
890	7.5553E+01		
900	6.1422E+01		
910	5.1296E+01		
920	4.3953E+01		
930	3.8561E+01		
940	3.4547E+01		
950	3.1515E+01		
960	2.9189E+01		
970	2.7373E+01		
980	2.5931E+01		
990	2.4765E+01		
1000	2.3804E+01		
1010	1.0000E-01		
1020	1.0000E-01		
1030	1.0000E-01		
1040	1.0000E-01		
1050	1.0000E-01		
1060	1.0000E-01		
1070	1.0000E-01		
1080	1.0000E-01		
1090	1.0000E-01		
1100	1.0000E-01		
1110	1.0000E-01		
1120	1.0000E-01		
1130	1.0000E-01		
1140	1.0000E-01		
1150	1.0000E-01		
1160	1.0000E-01		
1170	1.0000E-01		
1180	1.0000E-01		
1190	1.0000E-01		
1200	1.0000E-01		
1210	1.0000E-01		
1220	1.0000E-01		
1230	1.0000E-01		
1240	1.0000E-01		
1250	1.0000E-01		
1260	1.0000E-01		
1270	1.0000E-01		
1280	1.0000E-01		
1290	1.0000E-01		
1300	1.0000E-01		
1310	1.0000E-01		
1320	1.0000E-01		
1330	1.0000E-01		
1340	1.0000E-01		
1350	1.0000E-01		
1360	1.0000E-01		
1370	1.0000E-01		
1380	1.0000E-01		
1390	1.0000E-01		
1400	1.0000E-01		
1410	1.0000E-01		
1420	1.0000E-01		
1430	1.0000E-01		
1440	1.0000E-01		
1450	1.0000E-01		
1460	1.0000E-01		
1470	1.0000E-01		
1480	1.0000E-01		
1490	1.0000E-01		
1500	1.0000E-01		
1510	1.0000E-01		
1520	1.0000E-01		
1530	1.0000E-01		
1540	1.0000E-01		
1550	1.0000E-01		
1560	1.0000E-01		
1570	1.0000E-01		
1580	1.0000E-01		
1590	1.0000E-01		
1600	1.0000E-01		
1610	1.0000E-01		
1620	1.0000E-01		
1630	1.0000E-01		
1640	1.0000E-01		
1650	1.0000E-01		
1660	1.0000E-01		
1670	1.0000E-01		
1680	1.0000E-01		
1690	1.0000E-01		
1700	1.0000E-01		
1710	1.0000E-01		
1720	1.0000E-01		
1730	1.0000E-01		
1740	1.0000E-01		
1750	1.0000E-01		
1760	1.0000E-01		
1770	1.0000E-01		
1780	1.0000E-01		
1790	1.0000E-01		
1800	1.0000E-01		
1810	1.0000E-01		
1820	1.0000E-01		
1830	1.0000E-01		
1840	1.0000E-01		
1850	1.0000E-01		
1860	1.0000E-01		
1870	1.0000E-01		
1880	1.0000E-01		
1890	1.0000E-01		
1900	1.0000E-01		
1910	1.0000E-01		
1920	1.0000E-01		
1930	1.0000E-01		
1940	1.0000E-01		
1950	1.0000E-01		
1960	1.0000E-01		
1970	1.0000E-01		
1980	1.0000E-01		
1990	1.0000E-01
2000	1.0000E-01