/absorption data for Si
/from Schinke at el / AIP ADVANCES 5, 067168 (2015)
/lambda[nm]	alfa[m^-1]
250  1.810E+08
260  1.936E+08
270  2.146E+08
280  2.339E+08
290  2.309E+08
300  1.803E+08
310  1.474E+08
320  1.293E+08
330  1.182E+08
340  1.096E+08
350  1.047E+08
360  1.020E+08
370  7.292E+07
380  3.264E+07
390  1.626E+07
400  1.028E+07
410  7.418E+06
420  5.311E+06
430  4.036E+06
440  3.209E+06
450  2.671E+06
460  2.168E+06
470  1.884E+06
480  1.571E+06
490  1.384E+06
500  1.224E+06
510  1.083E+06
520  9.583E+05
530  8.278E+05
540  6.979E+05
550  6.426E+05
560  5.977E+05
570  5.251E+05
580  4.759E+05
590  4.289E+05
600  3.891E+05
610  3.566E+05
620  3.418E+05
630  3.255E+05
640  2.894E+05
650  2.802E+05
660  2.599E+05
670  2.410E+05
680  2.233E+05
690  2.067E+05
700  1.913E+05
710  1.769E+05
720  1.634E+05
730  1.508E+05
740  1.390E+05
750  1.280E+05
760  1.177E+05
770  1.081E+05
780  9.913E+04
790  9.077E+04
800  8.297E+04
810  7.570E+04
820  6.892E+04
830  6.263E+04
840  5.677E+04
850  5.132E+04
860  4.626E+04
870  4.158E+04
880  3.725E+04
890  3.323E+04
900  2.954E+04
910  2.613E+04
920  2.300E+04
930  2.000E+04
940  1.751E+04
950  1.512E+04
960  1.290E+04
970  1.092E+04
980  9.176E+03
990  7.594E+03
1000  6.179E+03
1010  4.944E+03
1020  3.885E+03
1030  2.943E+03
1040  2.177E+03
1050  1.566E+03
1060  1.099E+03
1070  7.990E+02
1080  6.089E+02
1090  4.599E+02
1100  3.463E+02
1110  2.602E+02
1120  1.921E+02
1130  1.381E+02
1140  9.533E+01
1150  6.234E+01
1160  3.725E+01
1170  1.902E+01
1180  5.935E+00
1190  2.453E+00
1200  1.461E+00
1210  8.424E-01
1220  4.953E-01
1230  2.781E-01
1240  1.456E-01
1250  5.929E-02
1260  2.336E-02
1270  1.262E-02
1280  7.414E-03
1290  4.378E-03
1300  2.640E-03
1310  1.526E-03
1320  8.327E-04
1330  3.984E-04
1340  1.705E-04
1350  9.737E-05
1360  5.831E-05
1370  3.591E-05
1380  2.408E-05
1390  1.576E-05
1400  9.389E-06
1410  5.402E-06
1420  3.808E-06
1430  1.797E-06
1440  1.207E-06
1450  9.477E-07
