/absorption data for Si
/from Schinke at el / AIP ADVANCES 5, 067168 (2015)
/lambda[nm]	alfa[m^-1]
250  1.812E+08
260  1.938E+08
270  2.148E+08
280  2.342E+08
290  2.312E+08
300  1.805E+08
310  1.475E+08
320  1.294E+08
330  1.183E+08
340  1.098E+08
350  1.048E+08
360  1.021E+08
370  7.300E+07
380  3.268E+07
390  1.628E+07
400  1.029E+07
410  7.426E+06
420  5.316E+06
430  4.040E+06
440  3.213E+06
450  2.674E+06
460  2.170E+06
470  1.886E+06
480  1.573E+06
490  1.386E+06
500  1.225E+06
510  1.085E+06
520  9.593E+05
530  8.287E+05
540  6.986E+05
550  6.433E+05
560  5.983E+05
570  5.257E+05
580  4.764E+05
590  4.294E+05
600  3.895E+05
610  3.570E+05
620  3.421E+05
630  3.259E+05
640  2.897E+05
650  2.805E+05
660  2.602E+05
670  2.412E+05
680  2.235E+05
690  2.070E+05
700  1.915E+05
710  1.770E+05
720  1.636E+05
730  1.509E+05
740  1.392E+05
750  1.281E+05
760  1.178E+05
770  1.083E+05
780  9.924E+04
790  9.087E+04
800  8.306E+04
810  7.578E+04
820  6.900E+04
830  6.269E+04
840  5.683E+04
850  5.138E+04
860  4.632E+04
870  4.163E+04
880  3.729E+04
890  3.327E+04
900  2.957E+04
910  2.616E+04
920  2.303E+04
930  2.002E+04
940  1.753E+04
950  1.513E+04
960  1.291E+04
970  1.094E+04
980  9.186E+03
990  7.602E+03
1000  6.186E+03
1010  4.950E+03
1020  3.889E+03
1030  2.946E+03
1040  2.179E+03
1050  1.568E+03
1060  1.101E+03
1070  7.999E+02
1080  6.096E+02
1090  4.604E+02
1100  3.467E+02
1110  2.605E+02
1120  1.923E+02
1130  1.383E+02
1140  9.543E+01
1150  6.241E+01
1160  3.729E+01
1170  1.904E+01
1180  5.942E+00
1190  2.455E+00
1200  1.462E+00
1210  8.434E-01
1220  4.959E-01
1230  2.784E-01
1240  1.457E-01
1250  5.936E-02
1260  2.339E-02
1270  1.263E-02
1280  7.422E-03
1290  4.382E-03
1300  2.643E-03
1310  1.527E-03
1320  8.336E-04
1330  3.989E-04
1340  1.707E-04
1350  9.748E-05
1360  5.838E-05
1370  3.595E-05
1380  2.411E-05
1390  1.578E-05
1400  9.400E-06
1410  5.408E-06
1420  3.812E-06
1430  1.799E-06
1440  1.208E-06
1450  9.487E-07
