/absorption data for Si
/from Schinke at el / AIP ADVANCES 5, 067168 (2015)
/lambda[nm]	alfa[m^-1]
250  1.813E+08
260  1.939E+08
270  2.150E+08
280  2.343E+08
290  2.313E+08
300  1.806E+08
310  1.476E+08
320  1.295E+08
330  1.184E+08
340  1.098E+08
350  1.049E+08
360  1.022E+08
370  7.305E+07
380  3.270E+07
390  1.629E+07
400  1.030E+07
410  7.431E+06
420  5.320E+06
430  4.043E+06
440  3.215E+06
450  2.676E+06
460  2.172E+06
470  1.887E+06
480  1.574E+06
490  1.387E+06
500  1.226E+06
510  1.085E+06
520  9.600E+05
530  8.293E+05
540  6.991E+05
550  6.437E+05
560  5.987E+05
570  5.261E+05
580  4.767E+05
590  4.297E+05
600  3.898E+05
610  3.572E+05
620  3.424E+05
630  3.261E+05
640  2.899E+05
650  2.807E+05
660  2.604E+05
670  2.414E+05
680  2.237E+05
690  2.071E+05
700  1.916E+05
710  1.772E+05
720  1.637E+05
730  1.510E+05
740  1.393E+05
750  1.282E+05
760  1.179E+05
770  1.083E+05
780  9.931E+04
790  9.093E+04
800  8.312E+04
810  7.583E+04
820  6.905E+04
830  6.274E+04
840  5.687E+04
850  5.141E+04
860  4.635E+04
870  4.165E+04
880  3.731E+04
890  3.329E+04
900  2.959E+04
910  2.618E+04
920  2.304E+04
930  2.004E+04
940  1.755E+04
950  1.514E+04
960  1.292E+04
970  1.094E+04
980  9.192E+03
990  7.607E+03
1000  6.190E+03
1010  4.953E+03
1020  3.892E+03
1030  2.948E+03
1040  2.181E+03
1050  1.569E+03
1060  1.101E+03
1070  8.004E+02
1080  6.100E+02
1090  4.608E+02
1100  3.469E+02
1110  2.607E+02
1120  1.924E+02
1130  1.384E+02
1140  9.550E+01
1150  6.246E+01
1160  3.731E+01
1170  1.905E+01
1180  5.946E+00
1190  2.457E+00
1200  1.463E+00
1210  8.439E-01
1220  4.962E-01
1230  2.786E-01
1240  1.458E-01
1250  5.940E-02
1260  2.340E-02
1270  1.264E-02
1280  7.427E-03
1290  4.385E-03
1300  2.645E-03
1310  1.528E-03
1320  8.342E-04
1330  3.992E-04
1340  1.708E-04
1350  9.755E-05
1360  5.842E-05
1370  3.598E-05
1380  2.413E-05
1390  1.579E-05
1400  9.406E-06
1410  5.411E-06
1420  3.815E-06
1430  1.800E-06
1440  1.209E-06
1450  9.493E-07
