/absorption data for Si
/from Schinke at el / AIP ADVANCES 5, 067168 (2015)
/lambda[nm]	alfa[m^-1]
250  1.813E+08
260  1.939E+08
270  2.149E+08
280  2.343E+08
290  2.313E+08
300  1.806E+08
310  1.476E+08
320  1.295E+08
330  1.184E+08
340  1.098E+08
350  1.049E+08
360  1.022E+08
370  7.303E+07
380  3.269E+07
390  1.629E+07
400  1.030E+07
410  7.430E+06
420  5.319E+06
430  4.042E+06
440  3.214E+06
450  2.676E+06
460  2.171E+06
470  1.887E+06
480  1.573E+06
490  1.387E+06
500  1.226E+06
510  1.085E+06
520  9.598E+05
530  8.291E+05
540  6.990E+05
550  6.436E+05
560  5.986E+05
570  5.260E+05
580  4.767E+05
590  4.296E+05
600  3.897E+05
610  3.572E+05
620  3.423E+05
630  3.260E+05
640  2.899E+05
650  2.806E+05
660  2.603E+05
670  2.413E+05
680  2.237E+05
690  2.071E+05
700  1.916E+05
710  1.771E+05
720  1.637E+05
730  1.510E+05
740  1.393E+05
750  1.282E+05
760  1.179E+05
770  1.083E+05
780  9.929E+04
790  9.092E+04
800  8.310E+04
810  7.582E+04
820  6.904E+04
830  6.273E+04
840  5.686E+04
850  5.140E+04
860  4.634E+04
870  4.165E+04
880  3.731E+04
890  3.329E+04
900  2.959E+04
910  2.617E+04
920  2.304E+04
930  2.003E+04
940  1.754E+04
950  1.514E+04
960  1.292E+04
970  1.094E+04
980  9.190E+03
990  7.606E+03
1000  6.189E+03
1010  4.952E+03
1020  3.891E+03
1030  2.948E+03
1040  2.180E+03
1050  1.568E+03
1060  1.101E+03
1070  8.003E+02
1080  6.099E+02
1090  4.607E+02
1100  3.468E+02
1110  2.606E+02
1120  1.924E+02
1130  1.384E+02
1140  9.548E+01
1150  6.244E+01
1160  3.731E+01
1170  1.905E+01
1180  5.945E+00
1190  2.457E+00
1200  1.463E+00
1210  8.438E-01
1220  4.961E-01
1230  2.785E-01
1240  1.458E-01
1250  5.939E-02
1260  2.340E-02
1270  1.264E-02
1280  7.426E-03
1290  4.385E-03
1300  2.644E-03
1310  1.528E-03
1320  8.340E-04
1330  3.991E-04
1340  1.708E-04
1350  9.753E-05
1360  5.841E-05
1370  3.597E-05
1380  2.412E-05
1390  1.578E-05
1400  9.404E-06
1410  5.411E-06
1420  3.814E-06
1430  1.799E-06
1440  1.209E-06
1450  9.492E-07
