/absorption data for Si
/from Schinke at el / AIP ADVANCES 5, 067168 (2015)
/lambda[nm]	alfa[m^-1]
250  1.812E+08
260  1.939E+08
270  2.149E+08
280  2.343E+08
290  2.313E+08
300  1.805E+08
310  1.476E+08
320  1.295E+08
330  1.183E+08
340  1.098E+08
350  1.049E+08
360  1.022E+08
370  7.302E+07
380  3.269E+07
390  1.628E+07
400  1.030E+07
410  7.429E+06
420  5.318E+06
430  4.041E+06
440  3.214E+06
450  2.675E+06
460  2.171E+06
470  1.887E+06
480  1.573E+06
490  1.386E+06
500  1.226E+06
510  1.085E+06
520  9.597E+05
530  8.290E+05
540  6.989E+05
550  6.435E+05
560  5.985E+05
570  5.259E+05
580  4.766E+05
590  4.296E+05
600  3.897E+05
610  3.571E+05
620  3.423E+05
630  3.260E+05
640  2.898E+05
650  2.806E+05
660  2.603E+05
670  2.413E+05
680  2.236E+05
690  2.070E+05
700  1.916E+05
710  1.771E+05
720  1.636E+05
730  1.510E+05
740  1.392E+05
750  1.282E+05
760  1.178E+05
770  1.083E+05
780  9.927E+04
790  9.090E+04
800  8.309E+04
810  7.580E+04
820  6.902E+04
830  6.271E+04
840  5.685E+04
850  5.139E+04
860  4.633E+04
870  4.164E+04
880  3.730E+04
890  3.328E+04
900  2.958E+04
910  2.617E+04
920  2.303E+04
930  2.003E+04
940  1.754E+04
950  1.514E+04
960  1.292E+04
970  1.094E+04
980  9.189E+03
990  7.605E+03
1000  6.188E+03
1010  4.951E+03
1020  3.891E+03
1030  2.947E+03
1040  2.180E+03
1050  1.568E+03
1060  1.101E+03
1070  8.001E+02
1080  6.098E+02
1090  4.606E+02
1100  3.468E+02
1110  2.606E+02
1120  1.924E+02
1130  1.383E+02
1140  9.546E+01
1150  6.243E+01
1160  3.730E+01
1170  1.905E+01
1180  5.944E+00
1190  2.456E+00
1200  1.463E+00
1210  8.436E-01
1220  4.961E-01
1230  2.785E-01
1240  1.458E-01
1250  5.938E-02
1260  2.340E-02
1270  1.264E-02
1280  7.425E-03
1290  4.384E-03
1300  2.644E-03
1310  1.528E-03
1320  8.339E-04
1330  3.990E-04
1340  1.708E-04
1350  9.751E-05
1360  5.840E-05
1370  3.596E-05
1380  2.412E-05
1390  1.578E-05
1400  9.403E-06
1410  5.410E-06
1420  3.813E-06
1430  1.799E-06
1440  1.208E-06
1450  9.490E-07
