/absorption data for Si
/from Schinke at el / AIP ADVANCES 5, 067168 (2015)
/lambda[nm]	alfa[m^-1]
250  1.811E+08
260  1.938E+08
270  2.148E+08
280  2.341E+08
290  2.311E+08
300  1.804E+08
310  1.475E+08
320  1.294E+08
330  1.183E+08
340  1.097E+08
350  1.048E+08
360  1.021E+08
370  7.298E+07
380  3.267E+07
390  1.628E+07
400  1.029E+07
410  7.425E+06
420  5.315E+06
430  4.039E+06
440  3.212E+06
450  2.674E+06
460  2.170E+06
470  1.886E+06
480  1.572E+06
490  1.386E+06
500  1.225E+06
510  1.084E+06
520  9.591E+05
530  8.285E+05
540  6.985E+05
550  6.432E+05
560  5.982E+05
570  5.256E+05
580  4.763E+05
590  4.293E+05
600  3.895E+05
610  3.569E+05
620  3.421E+05
630  3.258E+05
640  2.897E+05
650  2.804E+05
660  2.601E+05
670  2.412E+05
680  2.235E+05
690  2.069E+05
700  1.915E+05
710  1.770E+05
720  1.636E+05
730  1.509E+05
740  1.392E+05
750  1.281E+05
760  1.178E+05
770  1.082E+05
780  9.922E+04
790  9.085E+04
800  8.304E+04
810  7.576E+04
820  6.899E+04
830  6.268E+04
840  5.682E+04
850  5.137E+04
860  4.631E+04
870  4.162E+04
880  3.728E+04
890  3.326E+04
900  2.957E+04
910  2.615E+04
920  2.302E+04
930  2.002E+04
940  1.753E+04
950  1.513E+04
960  1.291E+04
970  1.093E+04
980  9.184E+03
990  7.600E+03
1000  6.185E+03
1010  4.949E+03
1020  3.889E+03
1030  2.946E+03
1040  2.179E+03
1050  1.567E+03
1060  1.100E+03
1070  7.997E+02
1080  6.094E+02
1090  4.603E+02
1100  3.466E+02
1110  2.604E+02
1120  1.923E+02
1130  1.383E+02
1140  9.541E+01
1150  6.240E+01
1160  3.728E+01
1170  1.904E+01
1180  5.941E+00
1190  2.455E+00
1200  1.462E+00
1210  8.432E-01
1220  4.958E-01
1230  2.783E-01
1240  1.457E-01
1250  5.935E-02
1260  2.338E-02
1270  1.263E-02
1280  7.421E-03
1290  4.382E-03
1300  2.643E-03
1310  1.527E-03
1320  8.334E-04
1330  3.988E-04
1340  1.707E-04
1350  9.746E-05
1360  5.836E-05
1370  3.594E-05
1380  2.411E-05
1390  1.577E-05
1400  9.398E-06
1410  5.407E-06
1420  3.811E-06
1430  1.798E-06
1440  1.208E-06
1450  9.485E-07
