/absorption data for Si
/from Schinke at el / AIP ADVANCES 5, 067168 (2015)
/lambda[nm]	alfa[m^-1]
250  1.809E+08
260  1.936E+08
270  2.145E+08
280  2.339E+08
290  2.309E+08
300  1.802E+08
310  1.473E+08
320  1.293E+08
330  1.182E+08
340  1.096E+08
350  1.047E+08
360  1.020E+08
370  7.291E+07
380  3.264E+07
390  1.626E+07
400  1.028E+07
410  7.417E+06
420  5.310E+06
430  4.035E+06
440  3.209E+06
450  2.671E+06
460  2.168E+06
470  1.884E+06
480  1.571E+06
490  1.384E+06
500  1.224E+06
510  1.083E+06
520  9.582E+05
530  8.277E+05
540  6.978E+05
550  6.425E+05
560  5.976E+05
570  5.251E+05
580  4.758E+05
590  4.289E+05
600  3.891E+05
610  3.566E+05
620  3.417E+05
630  3.255E+05
640  2.894E+05
650  2.801E+05
660  2.599E+05
670  2.409E+05
680  2.233E+05
690  2.067E+05
700  1.913E+05
710  1.768E+05
720  1.634E+05
730  1.508E+05
740  1.390E+05
750  1.280E+05
760  1.177E+05
770  1.081E+05
780  9.912E+04
790  9.076E+04
800  8.296E+04
810  7.569E+04
820  6.892E+04
830  6.262E+04
840  5.676E+04
850  5.131E+04
860  4.626E+04
870  4.158E+04
880  3.724E+04
890  3.323E+04
900  2.954E+04
910  2.613E+04
920  2.300E+04
930  2.000E+04
940  1.751E+04
950  1.512E+04
960  1.290E+04
970  1.092E+04
980  9.175E+03
990  7.593E+03
1000  6.179E+03
1010  4.944E+03
1020  3.885E+03
1030  2.943E+03
1040  2.177E+03
1050  1.566E+03
1060  1.099E+03
1070  7.989E+02
1080  6.088E+02
1090  4.599E+02
1100  3.462E+02
1110  2.602E+02
1120  1.921E+02
1130  1.381E+02
1140  9.532E+01
1150  6.234E+01
1160  3.724E+01
1170  1.902E+01
1180  5.935E+00
1190  2.452E+00
1200  1.460E+00
1210  8.423E-01
1220  4.953E-01
1230  2.780E-01
1240  1.455E-01
1250  5.929E-02
1260  2.336E-02
1270  1.262E-02
1280  7.413E-03
1290  4.377E-03
1300  2.640E-03
1310  1.526E-03
1320  8.326E-04
1330  3.984E-04
1340  1.705E-04
1350  9.736E-05
1360  5.831E-05
1370  3.591E-05
1380  2.408E-05
1390  1.576E-05
1400  9.388E-06
1410  5.401E-06
1420  3.807E-06
1430  1.796E-06
1440  1.207E-06
1450  9.476E-07
