/absorption data for Si
/from Schinke at el / AIP ADVANCES 5, 067168 (2015)
/lambda[nm]	alfa[m^-1]
250  1.808E+08
260  1.935E+08
270  2.144E+08
280  2.338E+08
290  2.308E+08
300  1.801E+08
310  1.473E+08
320  1.292E+08
330  1.181E+08
340  1.096E+08
350  1.047E+08
360  1.020E+08
370  7.287E+07
380  3.262E+07
390  1.625E+07
400  1.028E+07
410  7.413E+06
420  5.307E+06
430  4.033E+06
440  3.207E+06
450  2.670E+06
460  2.166E+06
470  1.883E+06
480  1.570E+06
490  1.383E+06
500  1.223E+06
510  1.083E+06
520  9.577E+05
530  8.272E+05
540  6.974E+05
550  6.422E+05
560  5.973E+05
570  5.248E+05
580  4.756E+05
590  4.287E+05
600  3.889E+05
610  3.564E+05
620  3.415E+05
630  3.253E+05
640  2.892E+05
650  2.800E+05
660  2.597E+05
670  2.408E+05
680  2.231E+05
690  2.066E+05
700  1.912E+05
710  1.767E+05
720  1.633E+05
730  1.507E+05
740  1.389E+05
750  1.279E+05
760  1.176E+05
770  1.081E+05
780  9.906E+04
790  9.071E+04
800  8.291E+04
810  7.565E+04
820  6.888E+04
830  6.258E+04
840  5.673E+04
850  5.129E+04
860  4.623E+04
870  4.155E+04
880  3.722E+04
890  3.321E+04
900  2.952E+04
910  2.611E+04
920  2.299E+04
930  1.999E+04
940  1.750E+04
950  1.511E+04
960  1.289E+04
970  1.092E+04
980  9.170E+03
990  7.589E+03
1000  6.175E+03
1010  4.941E+03
1020  3.883E+03
1030  2.941E+03
1040  2.175E+03
1050  1.565E+03
1060  1.099E+03
1070  7.985E+02
1080  6.085E+02
1090  4.596E+02
1100  3.460E+02
1110  2.600E+02
1120  1.920E+02
1130  1.380E+02
1140  9.526E+01
1150  6.230E+01
1160  3.722E+01
1170  1.901E+01
1180  5.932E+00
1190  2.451E+00
1200  1.460E+00
1210  8.419E-01
1220  4.950E-01
1230  2.779E-01
1240  1.455E-01
1250  5.926E-02
1260  2.335E-02
1270  1.261E-02
1280  7.409E-03
1290  4.375E-03
1300  2.638E-03
1310  1.525E-03
1320  8.321E-04
1330  3.982E-04
1340  1.704E-04
1350  9.731E-05
1360  5.827E-05
1370  3.589E-05
1380  2.407E-05
1390  1.575E-05
1400  9.383E-06
1410  5.398E-06
1420  3.805E-06
1430  1.795E-06
1440  1.206E-06
1450  9.470E-07
