/absorption data for Si
/from Schinke at el / AIP ADVANCES 5, 067168 (2015)
/lambda[nm]	alfa[m^-1]
250  1.806E+08
260  1.932E+08
270  2.141E+08
280  2.334E+08
290  2.304E+08
300  1.799E+08
310  1.470E+08
320  1.290E+08
330  1.179E+08
340  1.094E+08
350  1.045E+08
360  1.018E+08
370  7.276E+07
380  3.257E+07
390  1.623E+07
400  1.026E+07
410  7.402E+06
420  5.299E+06
430  4.027E+06
440  3.202E+06
450  2.666E+06
460  2.163E+06
470  1.880E+06
480  1.567E+06
490  1.381E+06
500  1.221E+06
510  1.081E+06
520  9.562E+05
530  8.260E+05
540  6.964E+05
550  6.412E+05
560  5.964E+05
570  5.240E+05
580  4.749E+05
590  4.280E+05
600  3.883E+05
610  3.558E+05
620  3.410E+05
630  3.248E+05
640  2.888E+05
650  2.796E+05
660  2.593E+05
670  2.404E+05
680  2.228E+05
690  2.063E+05
700  1.909E+05
710  1.765E+05
720  1.631E+05
730  1.504E+05
740  1.387E+05
750  1.277E+05
760  1.174E+05
770  1.079E+05
780  9.891E+04
790  9.058E+04
800  8.279E+04
810  7.553E+04
820  6.878E+04
830  6.249E+04
840  5.664E+04
850  5.121E+04
860  4.616E+04
870  4.149E+04
880  3.717E+04
890  3.316E+04
900  2.948E+04
910  2.607E+04
920  2.295E+04
930  1.996E+04
940  1.748E+04
950  1.508E+04
960  1.287E+04
970  1.090E+04
980  9.156E+03
990  7.577E+03
1000  6.166E+03
1010  4.934E+03
1020  3.877E+03
1030  2.937E+03
1040  2.172E+03
1050  1.562E+03
1060  1.097E+03
1070  7.973E+02
1080  6.076E+02
1090  4.589E+02
1100  3.455E+02
1110  2.596E+02
1120  1.917E+02
1130  1.378E+02
1140  9.512E+01
1150  6.221E+01
1160  3.717E+01
1170  1.898E+01
1180  5.923E+00
1190  2.447E+00
1200  1.457E+00
1210  8.406E-01
1220  4.943E-01
1230  2.775E-01
1240  1.452E-01
1250  5.917E-02
1260  2.331E-02
1270  1.259E-02
1280  7.398E-03
1290  4.368E-03
1300  2.635E-03
1310  1.522E-03
1320  8.309E-04
1330  3.976E-04
1340  1.702E-04
1350  9.716E-05
1360  5.819E-05
1370  3.583E-05
1380  2.403E-05
1390  1.572E-05
1400  9.369E-06
1410  5.390E-06
1420  3.800E-06
1430  1.793E-06
1440  1.204E-06
1450  9.456E-07
