/absorption data for Si
/from Schinke at el / AIP ADVANCES 5, 067168 (2015)
/lambda[nm]	alfa[m^-1]
250  1.803E+08
260  1.929E+08
270  2.138E+08
280  2.331E+08
290  2.301E+08
300  1.796E+08
310  1.468E+08
320  1.288E+08
330  1.177E+08
340  1.092E+08
350  1.043E+08
360  1.016E+08
370  7.265E+07
380  3.252E+07
390  1.620E+07
400  1.024E+07
410  7.391E+06
420  5.291E+06
430  4.021E+06
440  3.197E+06
450  2.662E+06
460  2.160E+06
470  1.877E+06
480  1.565E+06
490  1.379E+06
500  1.219E+06
510  1.079E+06
520  9.548E+05
530  8.247E+05
540  6.953E+05
550  6.402E+05
560  5.955E+05
570  5.232E+05
580  4.741E+05
590  4.274E+05
600  3.877E+05
610  3.553E+05
620  3.405E+05
630  3.243E+05
640  2.883E+05
650  2.791E+05
660  2.590E+05
670  2.401E+05
680  2.225E+05
690  2.060E+05
700  1.906E+05
710  1.762E+05
720  1.628E+05
730  1.502E+05
740  1.385E+05
750  1.275E+05
760  1.172E+05
770  1.077E+05
780  9.877E+04
790  9.044E+04
800  8.266E+04
810  7.542E+04
820  6.867E+04
830  6.240E+04
840  5.656E+04
850  5.113E+04
860  4.609E+04
870  4.143E+04
880  3.711E+04
890  3.311E+04
900  2.943E+04
910  2.604E+04
920  2.292E+04
930  1.993E+04
940  1.745E+04
950  1.506E+04
960  1.285E+04
970  1.088E+04
980  9.142E+03
990  7.566E+03
1000  6.157E+03
1010  4.926E+03
1020  3.871E+03
1030  2.932E+03
1040  2.169E+03
1050  1.560E+03
1060  1.095E+03
1070  7.961E+02
1080  6.067E+02
1090  4.582E+02
1100  3.450E+02
1110  2.593E+02
1120  1.914E+02
1130  1.376E+02
1140  9.498E+01
1150  6.212E+01
1160  3.711E+01
1170  1.895E+01
1180  5.914E+00
1190  2.444E+00
1200  1.455E+00
1210  8.393E-01
1220  4.935E-01
1230  2.770E-01
1240  1.450E-01
1250  5.908E-02
1260  2.328E-02
1270  1.257E-02
1280  7.387E-03
1290  4.362E-03
1300  2.631E-03
1310  1.520E-03
1320  8.296E-04
1330  3.970E-04
1340  1.699E-04
1350  9.702E-05
1360  5.810E-05
1370  3.578E-05
1380  2.400E-05
1390  1.570E-05
1400  9.355E-06
1410  5.382E-06
1420  3.794E-06
1430  1.790E-06
1440  1.202E-06
1450  9.442E-07
